Data from C2__Relative__6__00017.txt Node

Date: Tue Jan 30 17:52:16 CET 2024
User: diatiterra
Spectrometer: HDX00911
Trigger mode: 0
Integration Time (sec): 6,000000E-3
Scans to average: 3
Nonlinearity correction enabled: true
Boxcar width: 0
Storing dark spectrum: false
XAxis mode: Wavelengths
Number of Pixels in Spectrum: 2068
>>>>>Begin Spectral Data<<<<<
194,468	85,15
195,025	67,72
195,581	76,98
196,138	72,67
196,694	71,56
197,251	66,3
197,807	60,93
198,363	61,01
198,919	65,44
199,474	69,49
200,03	63,31
200,586	61,81
201,141	57,28
201,696	59,58
202,251	63,13
202,806	62,11
203,361	66,38
203,916	66,46
204,471	67,42
205,025	61,12
205,58	67,88
206,134	65,19
206,688	62,04
207,242	63,44
207,796	63
208,35	62,31
208,904	66,33
209,457	63,56
210,011	63,92
210,564	59,4
211,117	67,01
211,67	66,89
212,223	64,83
212,776	65,75
213,329	67,6
213,881	64,99
214,434	58,75
214,986	66,59
215,538	65,85
216,09	62,06
216,642	63,98
217,194	58,02
217,746	65,9
218,297	64,73
218,849	66,31
219,4	66,17
219,951	61,15
220,502	66,18
221,053	65
221,604	61,16
222,155	71,04
222,705	60,91
223,256	61,9
223,806	66,79
224,356	58,99
224,906	64,75
225,456	61,1
226,006	65,29
226,556	58,78
227,106	68,59
227,655	63,2
228,204	67,08
228,754	66,1
229,303	64,71
229,852	64,78
230,401	70,21
230,949	64,67
231,498	62,82
232,047	62,08
232,595	67,88
233,143	71,61
233,691	66,39
234,239	61,33
234,787	65,02
235,335	63,4
235,883	61,73
236,43	61,49
236,978	65,24
237,525	70,22
238,072	59,62
238,619	63,05
239,166	59,79
239,713	63,07
240,26	67,88
240,806	61,01
241,353	62,84
241,899	65,42
242,445	58,13
242,991	63,03
243,537	67,23
244,083	56,58
244,629	66,66
245,174	66,03
245,72	69,5
246,265	66,53
246,81	68,22
247,355	64,79
247,9	67,51
248,445	63,62
248,99	63,26
249,534	57,37
250,079	67,85
250,623	64,52
251,168	61,57
251,712	62,2
252,256	60,11
252,8	64,61
253,343	65,89
253,887	64,22
254,43	71,08
254,974	65,27
255,517	67,79
256,06	66,9
256,603	66,31
257,146	70,59
257,689	69,57
258,232	67,75
258,774	63,95
259,317	65,55
259,859	62,15
260,401	67,79
260,943	64,83
261,485	62,11
262,027	65,34
262,569	62,32
263,11	62,21
263,652	66,29
264,193	62,17
264,734	67,17
265,275	60,93
265,816	63,13
266,357	64,58
266,898	63,64
267,438	60,76
267,979	72,12
268,519	66,53
269,059	65,21
269,6	65,34
270,14	62,88
270,68	68,21
271,219	70,4
271,759	66,67
272,298	56,37
272,838	65,58
273,377	63,03
273,916	60,08
274,455	66,46
274,994	67,78
275,533	61,33
276,072	66,68
276,61	60,81
277,149	62,84
277,687	61,14
278,225	67,71
278,763	62,48
279,301	63,09
279,839	62,96
280,377	66,81
280,914	56,57
281,452	66,9
281,989	69,5
282,526	63,74
283,064	68,18
283,601	64,79
284,137	65,34
284,674	64,77
285,211	65,62
285,747	69,17
286,284	69,42
286,82	65,77
287,356	67,01
287,892	72,77
288,428	63,66
288,964	68,05
289,5	63,86
290,035	63,24
290,571	63,83
291,106	69,95
291,641	70,82
292,176	63,2
292,711	65,87
293,246	61,91
293,781	66
294,315	65,19
294,85	66,61
295,384	66,68
295,918	61,6
296,453	63,9
296,987	64,03
297,52	65,79
298,054	65,57
298,588	66,91
299,121	68,79
299,655	64,59
300,188	61,14
300,721	56,61
301,254	66,75
301,787	62,92
302,32	64,96
302,853	57,81
303,385	58,89
303,918	67,96
304,45	61,98
304,982	62,51
305,514	61,13
306,046	60,63
306,578	63,37
307,11	59,38
307,641	63,13
308,173	61,09
308,704	69,3
309,236	68,46
309,767	61,07
310,298	57,7
310,829	63,68
311,359	62,03
311,89	60,68
312,421	57,56
312,951	61,46
313,481	67,67
314,012	61,27
314,542	59,96
315,072	61,84
315,601	57,44
316,131	63,24
316,661	62,37
317,19	62,21
317,72	59,46
318,249	56,72
318,778	62,93
319,307	56,28
319,836	63,99
320,365	61,93
320,893	60
321,422	55,22
321,95	57,75
322,479	57,56
323,007	61,32
323,535	59,95
324,063	57,6
324,591	57,51
325,118	62,66
325,646	61,27
326,173	62,76
326,701	60,57
327,228	58
327,755	60,65
328,282	57,26
328,809	59,87
329,336	65,84
329,862	58,26
330,389	60,38
330,915	61,42
331,441	61,94
331,968	59,91
332,494	56,76
333,02	59,36
333,545	58,75
334,071	57,78
334,597	56,78
335,122	60,62
335,648	60,83
336,173	55,62
336,698	55,02
337,223	59,83
337,748	57,77
338,272	53,77
338,797	54,92
339,322	61,45
339,846	57,08
340,37	59,42
340,894	59,19
341,419	60,96
341,942	56,23
342,466	60,27
342,99	60,3
343,514	60,93
344,037	57,42
344,56	63,55
345,084	51,03
345,607	56,35
346,13	61,06
346,653	52,75
347,175	61
347,698	65,06
348,221	54,69
348,743	52,72
349,265	54,12
349,787	57,19
350,309	53,9
350,831	57,63
351,353	52,2
351,875	54,8
352,397	53,37
352,918	51,85
353,439	56,2
353,961	53,29
354,482	49,57
355,003	54,72
355,524	48,09
356,044	52,34
356,565	53,54
357,086	54,66
357,606	55,64
358,126	51,03
358,646	50,8
359,167	50,84
359,687	52,2
360,206	50,57
360,726	53,81
361,246	54,01
361,765	52,7
362,285	51,84
362,804	52,24
363,323	55,28
363,842	58,27
364,361	52,65
364,88	57,28
365,398	52,4
365,917	54,1
366,435	54,67
366,954	56,39
367,472	50,81
367,99	55,2
368,508	51,48
369,026	48,65
369,544	55,88
370,061	53,3
370,579	50,4
371,096	53,78
371,613	51,71
372,131	54,33
372,648	49,11
373,165	49,28
373,681	51,11
374,198	51,3
374,715	50,46
375,231	50,45
375,747	52,55
376,264	49,54
376,78	52,76
377,296	51,09
377,812	50,7
378,327	52,95
378,843	48,07
379,359	49,05
379,874	49,23
380,389	45,74
380,905	46,67
381,42	47,63
381,935	48,25
382,449	45,75
382,964	47,96
383,479	47,87
383,993	50,14
384,508	44,3
385,022	43,4
385,536	44,09
386,05	46,72
386,564	45,52
387,078	44,51
387,592	43,53
388,105	41,31
388,619	43,37
389,132	41,55
389,645	41,47
390,158	40,45
390,671	37,7
391,184	40,12
391,697	38,33
392,21	39,79
392,722	40,44
393,235	39,2
393,747	37,95
394,259	36,97
394,771	39,08
395,283	39,94
395,795	37,49
396,307	38,36
396,818	36,65
397,33	37,65
397,841	35,92
398,353	37,18
398,864	34,29
399,375	35,23
399,886	32,95
400,397	32,8
400,907	32,13
401,418	31,62
401,928	32,67
402,439	32,7
402,949	30,25
403,459	29,85
403,969	29,99
404,479	28,87
404,989	27,83
405,498	26,73
406,008	25,47
406,517	26,59
407,027	24,54
407,536	24,81
408,045	23,42
408,554	22,33
409,063	21,25
409,572	21,09
410,08	21,57
410,589	20,88
411,097	19,89
411,606	18,2
412,114	18,67
412,622	17,57
413,13	17,82
413,638	17,46
414,145	17,52
414,653	15,98
415,16	15,68
415,668	15,32
416,175	14,82
416,682	14,65
417,189	15,02
417,696	14,48
418,203	14,17
418,71	14,27
419,216	13,45
419,723	13,42
420,229	13,59
420,735	13,22
421,242	12,56
421,748	12,92
422,254	12,75
422,759	12,18
423,265	12,61
423,771	12,04
424,276	12,55
424,781	11,6
425,287	11,92
425,792	12,22
426,297	11,52
426,802	11,6
427,306	11,77
427,811	11,82
428,316	11,5
428,82	11,55
429,324	11,14
429,829	11,21
430,333	11,1
430,837	11,4
431,34	10,91
431,844	11,4
432,348	11,25
432,851	10,96
433,355	10,98
433,858	10,98
434,361	11,11
434,864	10,36
435,367	10,75
435,87	10,56
436,373	10,73
436,876	10,51
437,378	10,73
437,88	10,77
438,383	10,71
438,885	10,6
439,387	10,67
439,889	10,51
440,391	10,51
440,892	10,56
441,394	10,68
441,896	10,75
442,397	10,74
442,898	10,83
443,399	10,53
443,9	11,01
444,401	10,48
444,902	10,53
445,403	10,79
445,903	11,06
446,404	10,67
446,904	10,53
447,405	10,82
447,905	10,79
448,405	11,22
448,905	10,66
449,404	10,87
449,904	10,99
450,404	10,99
450,903	10,94
451,403	11
451,902	11,01
452,401	11,28
452,9	11,23
453,399	11,15
453,898	11,09
454,396	11,24
454,895	11,35
455,393	11,17
455,892	11,51
456,39	11,47
456,888	11,43
457,386	11,58
457,884	11,65
458,382	11,48
458,879	11,38
459,377	11,76
459,874	11,72
460,372	11,75
460,869	11,34
461,366	11,42
461,863	11,71
462,36	11,08
462,857	12,06
463,353	11,71
463,85	11,55
464,346	11,61
464,843	11,65
465,339	11,56
465,835	11,78
466,331	11,56
466,827	11,53
467,323	11,51
467,818	11,49
468,314	11,41
468,809	11,62
469,305	11,5
469,8	11,71
470,295	11,84
470,79	11,64
471,285	11,86
471,78	11,66
472,274	11,83
472,769	11,66
473,263	11,58
473,758	11,48
474,252	11,87
474,746	11,64
475,24	11,86
475,734	11,76
476,228	11,57
476,721	11,5
477,215	11,49
477,708	11,85
478,202	11,87
478,695	11,7
479,188	11,69
479,681	11,81
480,174	11,79
480,667	11,98
481,159	12,09
481,652	11,74
482,144	11,88
482,637	12,06
483,129	12,02
483,621	12,19
484,113	12,04
484,605	11,91
485,097	12,07
485,588	12,07
486,08	12,33
486,571	12,2
487,063	12,12
487,554	12,36
488,045	12,43
488,536	12,28
489,027	12,31
489,518	12,22
490,008	12,62
490,499	12,68
490,989	12,71
491,48	12,63
491,97	12,9
492,46	13,06
492,95	13,24
493,44	13,21
493,93	12,97
494,419	13,25
494,909	13,19
495,398	13,45
495,888	13,69
496,377	13,69
496,866	13,81
497,355	13,77
497,844	13,8
498,333	14
498,821	14,5
499,31	14,42
499,798	14,58
500,287	14,65
500,775	14,91
501,263	14,96
501,751	15,12
502,239	15,27
502,727	15,73
503,215	15,89
503,702	16,08
504,19	16,29
504,677	16,46
505,164	16,41
505,651	16,92
506,139	17,35
506,625	17,36
507,112	17,67
507,599	18,1
508,086	18,15
508,572	18,45
509,058	18,93
509,545	18,9
510,031	19,19
510,517	19,56
511,003	20,34
511,489	20,31
511,974	20,61
512,46	20,83
512,946	21,42
513,431	21,85
513,916	22,08
514,401	22,53
514,887	23,39
515,371	23,49
515,856	23,57
516,341	24,07
516,826	24,68
517,31	25,34
517,795	25,49
518,279	26,26
518,763	26,34
519,247	26,93
519,731	27,36
520,215	28,04
520,699	28,22
521,182	28,44
521,666	29,62
522,149	29,56
522,633	30,13
523,116	30,44
523,599	31,06
524,082	31,62
524,565	31,7
525,048	32,05
525,53	32,66
526,013	32,53
526,495	33,03
526,978	33,72
527,46	33,98
527,942	34,38
528,424	34,53
528,906	34,61
529,388	34,99
529,87	35,43
530,351	35,82
530,833	36,13
531,314	36,08
531,795	36
532,277	37,21
532,758	37,07
533,238	37,12
533,719	37,03
534,2	37,31
534,681	37,68
535,161	37,96
535,642	37,69
536,122	38,04
536,602	37,9
537,082	38,52
537,562	38,43
538,042	38,46
538,522	38,28
539,001	38,45
539,481	38,76
539,96	38,93
540,44	39,02
540,919	38,68
541,398	39,22
541,877	39,08
542,356	39,29
542,835	39,34
543,313	39,11
543,792	39,16
544,27	39,36
544,749	39,32
545,227	39,69
545,705	39,6
546,183	39,45
546,661	39,26
547,139	39,68
547,616	39,71
548,094	39,92
548,571	39,83
549,049	39,91
549,526	39,99
550,003	40,2
550,48	40,45
550,957	40,64
551,434	39,96
551,911	40,16
552,387	40,05
552,864	40,13
553,34	40,1
553,817	40,52
554,293	40,57
554,769	40,62
555,245	40,28
555,721	40,28
556,197	40,44
556,672	40,54
557,148	40,5
557,623	40,35
558,099	40,24
558,574	40,03
559,049	40
559,524	40,04
559,999	40,21
560,474	39,93
560,948	39,8
561,423	39,77
561,897	39,4
562,372	39,35
562,846	39,47
563,32	39,8
563,794	39,24
564,268	39,26
564,742	39,02
565,216	38,79
565,69	38,26
566,163	38,64
566,636	38,18
567,11	38,25
567,583	37,33
568,056	37,47
568,529	37,25
569,002	36,99
569,475	36,84
569,947	36,43
570,42	36,62
570,892	36,13
571,365	35,97
571,837	36,05
572,309	35,59
572,781	35,33
573,253	35,22
573,725	34,8
574,197	34,61
574,668	34,56
575,14	34,21
575,611	33,78
576,082	33,65
576,554	33,61
577,025	33,41
577,496	33,14
577,967	33,28
578,437	32,77
578,908	32,52
579,379	32,47
579,849	32,12
580,319	32,22
580,79	31,88
581,26	31,68
581,73	31,33
582,2	31,53
582,669	31,15
583,139	31,15
583,609	30,83
584,078	30,78
584,548	30,7
585,017	30,44
585,486	30,51
585,955	30,04
586,424	30,01
586,893	30,1
587,362	30,01
587,83	29,47
588,299	29,41
588,767	29,68
589,236	29,09
589,704	29,24
590,172	29,19
590,64	29,15
591,108	29,06
591,576	28,86
592,043	28,82
592,511	28,76
592,978	28,6
593,446	28,36
593,913	28,48
594,38	28,46
594,847	28,3
595,314	28,09
595,781	28,26
596,248	28,04
596,715	27,93
597,181	28,16
597,647	27,98
598,114	27,93
598,58	28,01
599,046	27,94
599,512	27,77
599,978	27,57
600,444	27,64
600,91	27,52
601,375	27,36
601,841	27,67
602,306	27,61
602,771	27,57
603,236	27,34
603,702	27,16
604,167	27,32
604,631	27,02
605,096	27,09
605,561	26,83
606,025	26,82
606,49	26,87
606,954	26,84
607,418	26,7
607,882	26,59
608,347	26,43
608,81	26,27
609,274	25,98
609,738	25,92
610,202	25,81
610,665	25,77
611,128	25,56
611,592	25,38
612,055	25,34
612,518	25,39
612,981	25,04
613,444	25,02
613,907	24,89
614,369	24,79
614,832	24,83
615,294	24,52
615,757	24,55
616,219	24,15
616,681	24,27
617,143	24,1
617,605	23,94
618,067	23,63
618,529	23,54
618,99	23,5
619,452	23,55
619,913	23,47
620,375	23,23
620,836	23,42
621,297	23,16
621,758	23,07
622,219	23,02
622,68	22,91
623,14	22,92
623,601	22,89
624,061	22,7
624,522	22,66
624,982	22,74
625,442	22,67
625,902	22,43
626,362	22,5
626,822	22,63
627,282	22,59
627,742	22,46
628,201	22,36
628,661	22,38
629,12	22,24
629,579	22,27
630,038	22,43
630,497	22,23
630,956	22,17
631,415	22,19
631,874	22,05
632,332	21,97
632,791	22,23
633,249	21,91
633,708	21,8
634,166	21,86
634,624	21,66
635,082	21,32
635,54	21,49
635,998	21,29
636,455	21,25
636,913	21,02
637,37	20,86
637,828	20,6
638,285	20,63
638,742	20,5
639,199	20,12
639,656	19,98
640,113	19,99
640,57	19,73
641,027	19,45
641,483	19,31
641,94	19,21
642,396	19,01
642,852	18,87
643,309	18,56
643,765	18,41
644,221	18,11
644,676	18,11
645,132	17,84
645,588	17,85
646,043	17,52
646,499	17,54
646,954	17,13
647,409	17,05
647,864	16,84
648,319	16,66
648,774	16,53
649,229	16,45
649,684	16,4
650,139	16,21
650,593	16,24
651,047	16,13
651,502	16,08
651,956	15,96
652,41	15,85
652,864	15,8
653,318	15,67
653,772	15,56
654,225	15,65
654,679	15,4
655,133	15,44
655,586	15,39
656,039	15,27
656,492	15,05
656,946	15,17
657,399	14,98
657,851	14,83
658,304	14,73
658,757	14,65
659,209	14,47
659,662	14,48
660,114	14,35
660,567	14,06
661,019	14,09
661,471	14
661,923	13,74
662,375	13,62
662,826	13,51
663,278	13,38
663,73	13,36
664,181	13,19
664,632	13,18
665,084	13,08
665,535	13,04
665,986	12,86
666,437	12,75
666,888	12,71
667,338	12,79
667,789	12,63
668,24	12,61
668,69	12,66
669,14	12,74
669,591	12,51
670,041	12,63
670,491	12,54
670,941	12,54
671,391	12,6
671,84	12,59
672,29	12,6
672,74	12,73
673,189	12,77
673,638	12,75
674,088	12,85
674,537	12,77
674,986	12,96
675,435	12,97
675,883	13,08
676,332	13,28
676,781	13,2
677,229	13,44
677,678	13,6
678,126	13,64
678,574	13,69
679,022	13,9
679,47	14,05
679,918	14,19
680,366	14,21
680,814	14,41
681,261	14,54
681,709	14,66
682,156	14,94
682,604	14,97
683,051	15,25
683,498	15,55
683,945	15,64
684,392	15,95
684,839	16,02
685,286	16,29
685,732	16,62
686,179	16,79
686,625	16,97
687,071	17,35
687,518	17,63
687,964	17,94
688,41	18,39
688,856	18,89
689,301	19,43
689,747	19,71
690,193	20,28
690,638	20,8
691,084	21,22
691,529	21,9
691,974	22,62
692,419	23,12
692,864	23,9
693,309	24,5
693,754	25,16
694,199	25,78
694,643	26,52
695,088	27,34
695,532	28,21
695,977	28,81
696,421	29,51
696,865	30,26
697,309	31,31
697,753	31,87
698,197	32,5
698,64	33,21
699,084	33,88
699,527	34,57
699,971	35,49
700,414	36,18
700,857	36,73
701,3	37,53
701,743	37,94
702,186	38,96
702,629	39,4
703,072	39,98
703,515	40,8
703,957	41,11
704,399	42,03
704,842	42,27
705,284	42,81
705,726	43,63
706,168	44,09
706,61	45,09
707,052	45,16
707,494	45,5
707,935	46,31
708,377	46,77
708,818	47,45
709,26	47,75
709,701	48,15
710,142	48,63
710,583	49,32
711,024	49,81
711,465	50,24
711,905	50,33
712,346	50,91
712,787	51,29
713,227	51,83
713,667	52,52
714,108	52,69
714,548	53,16
714,988	53,36
715,428	53,79
715,868	54,28
716,307	54,42
716,747	55,27
717,186	55,51
717,626	55,69
718,065	56,51
718,504	56,33
718,944	57,23
719,383	57,34
719,822	57,57
720,261	57,83
720,699	58,26
721,138	58,47
721,576	58,91
722,015	59,12
722,453	59,8
722,892	59,68
723,33	60,35
723,768	60,34
724,206	60,79
724,644	60,73
725,081	61,04
725,519	61,26
725,957	61,42
726,394	61,65
726,832	61,93
727,269	62,19
727,706	62,53
728,143	62,63
728,58	62,77
729,017	62,82
729,454	63,33
729,89	63,37
730,327	63,19
730,764	63,51
731,2	63,77
731,636	63,84
732,072	64,1
732,509	64,21
732,945	64,18
733,38	64,37
733,816	64,49
734,252	64,37
734,688	64,39
735,123	64,54
735,559	65,03
735,994	64,83
736,429	64,94
736,864	65,25
737,299	64,91
737,734	65,18
738,169	65,05
738,604	65,15
739,038	65,41
739,473	65,34
739,907	65,5
740,342	65,45
740,776	65,39
741,21	65,62
741,644	65,5
742,078	65,83
742,512	65,7
742,946	65,7
743,379	65,75
743,813	65,75
744,246	65,71
744,68	65,62
745,113	65,54
745,546	65,64
745,979	65,51
746,412	65,57
746,845	65,18
747,278	65,65
747,711	65,6
748,143	65,48
748,576	65,41
749,008	65,4
749,441	65,43
749,873	65,22
750,305	65,51
750,737	65,4
751,169	65,3
751,601	65,41
752,032	65,11
752,464	65,25
752,896	64,98
753,327	65,04
753,758	65,18
754,19	64,93
754,621	65,22
755,052	64,95
755,483	64,91
755,914	65,01
756,344	64,91
756,775	65,15
757,206	64,94
757,636	64,62
758,066	64,6
758,497	64,62
758,927	64,62
759,357	64,57
759,787	64,61
760,217	64,45
760,647	64,32
761,076	64,73
761,506	64,45
761,935	64,42
762,365	64,55
762,794	64,51
763,223	64,32
763,653	64,24
764,082	64,33
764,51	64,12
764,939	63,99
765,368	64,35
765,797	64,04
766,225	64,08
766,654	63,91
767,082	63,82
767,51	63,86
767,938	64
768,367	63,83
768,795	63,57
769,222	63,76
769,65	63,92
770,078	63,78
770,505	63,39
770,933	63,49
771,36	63,58
771,788	63,54
772,215	63,56
772,642	63,55
773,069	63,56
773,496	63,32
773,923	63,35
774,349	63,2
774,776	63,54
775,203	63,4
775,629	63,31
776,055	63,29
776,482	63,23
776,908	63,29
777,334	63,09
777,76	63,32
778,186	63,06
778,611	63,08
779,037	63,13
779,463	63,17
779,888	63,09
780,314	63,07
780,739	63,18
781,164	63,1
781,589	62,79
782,014	62,78
782,439	62,97
782,864	63,02
783,289	63
783,713	62,8
784,138	62,79
784,562	63,09
784,987	62,92
785,411	62,73
785,835	62,7
786,259	62,74
786,683	63,16
787,107	62,77
787,531	62,76
787,954	62,39
788,378	62,81
788,802	62,92
789,225	62,83
789,648	62,73
790,071	62,8
790,495	62,44
790,918	62,66
791,34	62,59
791,763	62,68
792,186	62,57
792,609	62,98
793,031	62,46
793,454	62,92
793,876	62,75
794,298	62,58
794,721	62,57
795,143	62,85
795,565	62,34
795,986	62,74
796,408	62,37
796,83	62,35
797,252	62,36
797,673	62,6
798,094	62,41
798,516	62,23
798,937	62,63
799,358	62,56
799,779	62,22
800,2	62,4
800,621	62,46
801,042	62,53
801,462	62,28
801,883	62,73
802,303	62,35
802,724	62,35
803,144	62,54
803,564	62,1
803,984	62,58
804,404	62,55
804,824	62,49
805,244	62,38
805,664	62,32
806,084	62,26
806,503	62,66
806,923	62,54
807,342	62,43
807,761	62,21
808,18	62,6
808,599	62,16
809,018	62,07
809,437	62,51
809,856	62,24
810,275	62,18
810,693	62,25
811,112	62,31
811,53	62,04
811,949	62,42
812,367	62,32
812,785	62,39
813,203	62,23
813,621	62,27
814,039	62,34
814,457	61,99
814,874	62,29
815,292	62,41
815,709	62,2
816,127	62,34
816,544	62,31
816,961	62,23
817,378	62,34
817,795	61,93
818,212	62,27
818,629	61,94
819,046	62,2
819,462	62,09
819,879	62,23
820,295	62
820,712	61,85
821,128	62,04
821,544	62,02
821,96	62,24
822,376	62,25
822,792	62,04
823,208	61,99
823,624	62,12
824,039	62,07
824,455	61,86
824,87	62,39
825,286	61,83
825,701	62,21
826,116	61,67
826,531	61,94
826,946	62,03
827,361	62,02
827,776	61,67
828,19	61,88
828,605	61,94
829,02	61,85
829,434	61,98
829,848	62,05
830,263	61,88
830,677	61,89
831,091	61,97
831,505	62
831,919	61,94
832,332	61,71
832,746	61,61
833,16	61,85
833,573	61,63
833,987	61,72
834,4	61,75
834,813	61,43
835,226	61,89
835,639	61,73
836,052	61,81
836,465	61,87
836,878	61,94
837,29	61,75
837,703	61,77
838,116	61,72
838,528	61,87
838,94	61,72
839,352	61,45
839,765	61,91
840,177	61,75
840,589	62,02
841	61,89
841,412	61,66
841,824	61,7
842,235	61,59
842,647	61,68
843,058	61,93
843,47	61,76
843,881	61,76
844,292	61,7
844,703	61,57
845,114	61,88
845,525	61,91
845,935	61,71
846,346	61,66
846,757	61,71
847,167	61,78
847,577	62,02
847,988	61,23
848,398	61,51
848,808	61,28
849,218	61,43
849,628	61,49
850,038	61,79
850,448	61,42
850,857	61,76
851,267	61,73
851,676	61,53
852,086	61,76
852,495	61,45
852,904	61,79
853,313	61,65
853,722	61,57
854,131	61,68
854,54	61,46
854,949	61,63
855,357	61,73
855,766	61,69
856,174	61,4
856,583	61,69
856,991	61,5
857,399	61,74
857,807	61,9
858,215	61,81
858,623	61,66
859,031	61,64
859,439	61,85
859,846	61,51
860,254	61,9
860,661	61,57
861,069	61,3
861,476	61,62
861,883	61,48
862,29	61,48
862,697	61,55
863,104	61,26
863,511	61,55
863,918	61,32
864,325	61,62
864,731	61,03
865,138	61,44
865,544	61,5
865,95	61,4
866,357	61,35
866,763	61,57
867,169	61,45
867,575	61,22
867,98	61,55
868,386	61,79
868,792	61,34
869,197	61,58
869,603	61,37
870,008	61,51
870,414	61,29
870,819	61,45
871,224	61,37
871,629	61,12
872,034	61,35
872,439	61,59
872,844	61,31
873,248	61,59
873,653	61,34
874,057	61,29
874,462	61,15
874,866	61,31
875,27	61,36
875,674	61,18
876,078	61,23
876,482	61,3
876,886	61,2
877,29	60,88
877,694	61,2
878,097	61,27
878,501	61,05
878,904	61,15
879,308	61,07
879,711	61,31
880,114	61,48
880,517	61,15
880,92	61,36
881,323	61,61
881,726	61,14
882,128	60,93
882,531	61,17
882,934	61,33
883,336	61,33
883,738	61,24
884,141	61,21
884,543	61,56
884,945	61,06
885,347	61,13
885,749	60,97
886,151	61,2
886,552	61,23
886,954	61,26
887,355	61,39
887,757	61,32
888,158	61,4
888,56	61,44
888,961	61,3
889,362	61,04
889,763	61,28
890,164	61,29
890,565	61,58
890,965	61,41
891,366	61,39
891,767	61,73
892,167	61,48
892,567	61,34
892,968	61,19
893,368	61,29
893,768	61,27
894,168	61,14
894,568	61,24
894,968	61,37
895,368	61,35
895,767	61,13
896,167	61,25
896,566	61,19
896,966	61,18
897,365	61,48
897,764	61,28
898,164	61,47
898,563	61,38
898,962	61,42
899,361	61,42
899,759	61,23
900,158	61,38
900,557	61,62
900,955	61,56
901,354	61,22
901,752	61,08
902,15	61,22
902,548	61,24
902,947	61,12
903,345	61,37
903,742	61,05
904,14	61,1
904,538	61,31
904,936	61,2
905,333	61,26
905,731	60,94
906,128	61,22
906,525	61,43
906,923	61,07
907,32	61,28
907,717	61,06
908,114	61,36
908,511	61,15
908,907	61,18
909,304	61,11
909,701	61,3
910,097	60,87
910,494	61,78
910,89	61,11
911,286	61,48
911,682	61,1
912,078	61,26
912,474	61,21
912,87	61,38
913,266	61,13
913,662	61,3
914,058	60,99
914,453	61,28
914,849	61,42
915,244	61,21
915,639	61,65
916,034	61,62
916,43	61,19
916,825	61,27
917,22	61,23
917,614	61,01
918,009	60,82
918,404	60,89
918,798	61,28
919,193	61,14
919,587	61,22
919,982	60,91
920,376	60,92
920,77	61,06
921,164	61,52
921,558	61,33
921,952	60,74
922,346	60,98
922,74	60,88
923,133	60,97
923,527	60,52
923,92	60,96
924,314	60,87
924,707	60,96
925,1	60,85
925,493	61,17
925,886	60,83
926,279	60,9
926,672	60,82
927,065	61,12
927,457	61,13
927,85	60,48
928,243	60,94
928,635	60,89
929,027	60,71
929,42	60,67
929,812	60,74
930,204	60,69
930,596	61,02
930,988	61,25
931,379	60,86
931,771	60,63
932,163	60,96
932,554	60,72
932,946	60,71
933,337	60,37
933,729	60,55
934,12	60,87
934,511	60,69
934,902	60,55
935,293	60,55
935,684	60,47
936,075	60,81
936,465	60,31
936,856	60,03
937,246	60,21
937,637	59,95
938,027	60,53
938,417	60,41
938,808	59,78
939,198	59,81
939,588	60,49
939,978	60,19
940,368	60,31
940,757	60,2
941,147	60,03
941,537	60
941,926	60,16
942,315	60,48
942,705	60,26
943,094	59,97
943,483	59,98
943,872	60,75
944,261	60,58
944,65	59,74
945,039	59,97
945,428	59,73
945,816	60,64
946,205	59,69
946,593	59,47
946,982	59,95
947,37	60,65
947,758	59,98
948,146	59,04
948,534	59,07
948,922	59,34
949,31	59,19
949,698	59,8
950,086	59,63
950,473	60,07
950,861	59,57
951,248	59,02
951,636	59,29
952,023	59,12
952,41	59,16
952,797	59,08
953,184	59,79
953,571	58,89
953,958	58,98
954,345	58,88
954,731	59,06
955,118	58,84
955,505	59,38
955,891	58,97
956,277	58,87
956,664	59,05
957,05	58,6
957,436	59,01
957,822	59,25
958,208	58,55
958,594	59,01
958,979	58,86
959,365	58,86
959,751	58,69
960,136	58,71
960,522	58,83
960,907	58,73
961,292	59,11
961,677	59,2
962,062	58,66
962,447	58,83
962,832	58,78
963,217	58,44
963,602	58,71
963,986	58,72
964,371	58,22
964,756	58,7
965,14	58,68
965,524	58,36
965,908	58,59
966,293	58,46
966,677	58,32
967,061	58,67
967,445	58,62
967,828	58,72
968,212	58,71
968,596	58,81
968,979	58,69
969,363	58,85
969,746	58,62
970,129	58,41
970,513	58,07
970,896	58,4
971,279	58,21
971,662	59
972,045	58,73
972,428	58,24
972,81	58,62
973,193	58,74
973,575	58,26
973,958	58,85
974,34	58,37
974,723	58,64
975,105	59,09
975,487	58,43
975,869	58,53
976,251	58,99
976,633	58,63
977,015	58,44
977,396	58,54
977,778	58,7
978,16	58,69
978,541	58,76
978,922	58,48
979,304	58,86
979,685	58,38
980,066	58,77
980,447	58,8
980,828	58,99
981,209	58,71
981,59	58,75
981,97	58,35
982,351	58,93
982,732	58,56
983,112	58,75
983,493	58,86
983,873	58,51
984,253	58,67
984,633	58,57
985,013	58,68
985,393	58,46
985,773	58,43
986,153	58,98
986,533	58,66
986,912	58,89
987,292	58,77
987,671	59,23
988,051	59,05
988,43	59,42
988,809	58,95
989,188	59,22
989,567	58,72
989,946	59
990,325	58,56
990,704	59,06
991,083	58,83
991,461	58,93
991,84	58,45
992,218	58,35
992,597	59,28
992,975	58,28
993,353	59,58
993,732	58,57
994,11	58,92
994,488	59,25
994,866	59,13
995,243	59,01
995,621	59,04
995,999	59,08
996,376	59,04
996,754	58,71
997,131	58,9
997,509	58,52
997,886	58,62
998,263	59,27
998,64	58,49
999,017	58,42
999,394	59,29
999,771	59,29
1000,148	59,03
1000,524	59,07
1000,901	59,05
1001,277	59,8
1001,654	59,03
1002,03	59,12
1002,406	59,27
1002,783	59,47
1003,159	59,1
1003,535	58,77
1003,911	58,87
1004,286	59,73
1004,662	59,17
1005,038	59,25
1005,414	59,4
1005,789	59,46
1006,164	58,92
1006,54	59,31
1006,915	59,71
1007,29	58,94
1007,665	59,55
1008,04	59,59
1008,415	59,37
1008,79	59,79
1009,165	59,42
1009,54	59,28
1009,914	59,84
1010,289	60,13
1010,663	59,74
1011,038	59,59
1011,412	59,05
1011,786	59,72
1012,16	59,82
1012,535	59,58
1012,909	59,7
1013,282	59,2
1013,656	59,47
1014,03	59,31
1014,404	59,38
1014,777	59,2
1015,151	59,95
1015,524	59,85
1015,897	59,8
1016,271	59,9
1016,644	59,85
1017,017	59,98
1017,39	59,89
1017,763	59,55
1018,136	59,76
1018,508	60,2
1018,881	60,34
1019,254	59,86
1019,626	59,61
1019,999	59,91
1020,371	59,17
1020,743	60,06
1021,116	59,32
1021,488	59,64
1021,86	60,16
1022,232	60,26
1022,604	59,49
1022,975	60,69
1023,347	59,81
1023,719	59,9
1024,09	60,27
1024,462	60,43
1024,833	59,44
1025,204	60,24
1025,576	60,27
1025,947	60,14
1026,318	60,51
1026,689	59,82
1027,06	59,88
1027,431	59,82
1027,801	60,98
1028,172	59,96
1028,543	60,13
1028,913	61,06
1029,284	59,8
1029,654	59,99
1030,024	60,33
1030,394	59,87
1030,764	59,67
1031,135	60,64
1031,504	60,14
1031,874	60,56
1032,244	60,06
1032,614	59,98
1032,983	59,97
1033,353	60,17
1033,722	59,98
1034,092	59,96
1034,461	61,11
1034,83	60,34
1035,2	60,47
1035,569	59,74
1035,938	60,07
1036,307	61,36
1036,675	60,6
1037,044	60,23
1037,413	60,61
1037,781	61,05
1038,15	60,72
1038,518	60,58
1038,887	60,54
1039,255	60,41
1039,623	60,6
1039,991	61,02
1040,359	60,94
1040,727	60,35
1041,095	60,72
1041,463	60,42
1041,831	60,63
1042,198	60,43
1042,566	60,18
1042,933	60,05
1043,301	61,42
1043,668	61,04
1044,035	60,91
1044,402	61,63
1044,77	60,48
1045,137	60,62
1045,503	60,51
1045,87	60,46
1046,237	60,47
1046,604	61,02
1046,97	61,05
1047,337	61,3
1047,703	61
1048,07	60,52
1048,436	61,14
1048,802	60,54
1049,168	61,58
1049,534	60,93
1049,9	61,04
1050,266	61,31
1050,632	61,11
1050,998	62,07
1051,364	60,6
1051,729	60,76
1052,095	60,94
1052,46	60,77
1052,825	60,98
1053,191	61,58
1053,556	61,01
1053,921	60,72
1054,286	60,22
1054,651	60,43
1055,016	60,49
1055,381	61
1055,745	61,04
1056,11	61,47
1056,475	61,28
1056,839	61,63
1057,203	60,52
1057,568	61,54
1057,932	61,14
1058,296	61,16
1058,66	60,89
1059,024	61,45
1059,388	61,01
1059,752	61,92
1060,116	60,79
1060,48	62,09
1060,843	61,15
1061,207	60,76
1061,57	61,52
1061,934	61,4
1062,297	61,41
1062,66	60,84
1063,023	61,72
1063,386	61,7
1063,749	61,06
1064,112	61,11
1064,475	61,14
1064,838	61,03
1065,201	61,32
1065,563	60,16
1065,926	60,89
1066,288	60,95
1066,651	61,6
1067,013	59,98
1067,375	61,65
1067,737	61,18
1068,099	61,54
1068,461	61,68
1068,823	61,27
1069,185	62,68
1069,547	62,53
1069,909	61,39
1070,27	61,21
1070,632	61,29
1070,993	61,64
1071,355	60,85
1071,716	59,93
1072,077	60,26
1072,438	61,13
1072,799	62,31
1073,16	61,13
1073,521	61,58
1073,882	61,09
1074,243	61,81
1074,603	61,68
1074,964	60,99
1075,325	62,47
1075,685	61,76
1076,045	61,01
1076,406	60,45
1076,766	60,06
1077,126	61,43
1077,486	61,61
1077,846	62,24
1078,206	60,51
1078,566	60,93
1078,925	61,04
1079,285	61,61
1079,645	60,77
1080,004	62,09
1080,364	62,05
1080,723	62,59
1081,082	61,74
1081,442	61,9
1081,801	60,43
1082,16	61,21
1082,519	61,38
1082,878	61,18
1083,237	60,48
1083,595	61,55
1083,954	61,69
1084,313	61
1084,671	60,61
1085,03	61,32
1085,388	61,82
1085,746	60,86
1086,104	59,46
1086,463	61,15
1086,821	60,56
1087,179	60,76
1087,537	59,86
1087,894	60,84
1088,252	63,04
1088,61	62,48
1088,967	60,61
1089,325	62,19
1089,682	61,13
1090,04	60,7
1090,397	60,12
1090,754	62,49
1091,111	61,88
1091,469	60,5
1091,826	61,36
1092,182	60,94
1092,539	61,62
1092,896	60,63
1093,253	60,62
1093,609	61,02
1093,966	60,58
1094,322	62,21
1094,679	60,59
1095,035	59,12
1095,391	60,72
1095,748	61,45
1096,104	61,64
1096,46	61,12
1096,816	60,7
1097,171	60,15
1097,527	63,74
1097,883	62,13
1098,239	62,5
1098,594	62,64
1098,95	62,11
1099,305	62,78
1099,66	62,04
1100,016	61,15
1100,371	61,2
1100,726	60,32
1101,081	62,54
1101,436	60,22
1101,791	62,51
1102,146	60,52
1102,5	62,34
1102,855	61,1
1103,21	63,43
1103,564	61,58
1103,918	61,02
1104,273	61,7
1104,627	61,01
1104,981	62,25
1105,335	61,88
1105,69	62,14
1106,043	61,23
1106,397	61,69
1106,751	61,51
1107,105	62,53
1107,459	60,15
1107,812	60,85
1108,166	62,23
1108,519	61,19
1108,873	61,73
1109,226	61,23
1109,579	64,25
1109,932	61,32
1110,285	61,18
1110,638	62,88
1110,991	61,99
1111,344	61,27
1111,697	62,39
1112,05	62,08
1112,402	63,98
1112,755	60,69
1113,107	63,19
1113,46	61,93
1113,812	62,02
1114,164	61,02
1114,517	60,56
1114,869	86,16
1115,221	77,26
1115,573	67,69
1115,924	69,35
