Data from G6__Relative__0__00134.txt Node

Date: Tue Jan 30 18:07:38 CET 2024
User: diatiterra
Spectrometer: HDX00911
Trigger mode: 0
Integration Time (sec): 6,000000E-3
Scans to average: 3
Nonlinearity correction enabled: true
Boxcar width: 0
Storing dark spectrum: false
XAxis mode: Wavelengths
Number of Pixels in Spectrum: 2068
>>>>>Begin Spectral Data<<<<<
194,468	146,23
195,025	116,09
195,581	121,89
196,138	124,9
196,694	106,75
197,251	91,01
197,807	92,03
198,363	88,89
198,919	90,67
199,474	94,56
200,03	91,83
200,586	86,46
201,141	87,85
201,696	79,5
202,251	85,33
202,806	87,37
203,361	89,85
203,916	88,74
204,471	92,17
205,025	85,41
205,58	90,91
206,134	90,3
206,688	84,33
207,242	83,48
207,796	87,39
208,35	84,56
208,904	90,88
209,457	86,33
210,011	86,92
210,564	81,77
211,117	94,67
211,67	96,07
212,223	95,12
212,776	91,6
213,329	93,14
213,881	89,94
214,434	87,44
214,986	92,08
215,538	90,44
216,09	83,16
216,642	91,56
217,194	80,24
217,746	84,31
218,297	82,26
218,849	87,99
219,4	86,47
219,951	86,78
220,502	87,01
221,053	88,6
221,604	85,67
222,155	91,58
222,705	92,52
223,256	83,29
223,806	88,8
224,356	89,54
224,906	88,11
225,456	86,49
226,006	83,81
226,556	81,04
227,106	89,54
227,655	90,43
228,204	89,73
228,754	90,58
229,303	83,66
229,852	90,66
230,401	91,05
230,949	90,29
231,498	83,7
232,047	80,52
232,595	92,08
233,143	87,08
233,691	85,27
234,239	91,11
234,787	87,93
235,335	84,82
235,883	88,94
236,43	89,23
236,978	85,16
237,525	85,21
238,072	82,21
238,619	90,66
239,166	87,31
239,713	84,37
240,26	90,79
240,806	87,34
241,353	81,72
241,899	84,17
242,445	90,27
242,991	84,8
243,537	93,03
244,083	92,89
244,629	85,05
245,174	87,13
245,72	90,83
246,265	96,77
246,81	100,45
247,355	87,9
247,9	87,85
248,445	92,69
248,99	89,79
249,534	89,96
250,079	93,4
250,623	81,75
251,168	83,05
251,712	88,74
252,256	82,01
252,8	89,77
253,343	89,05
253,887	86,36
254,43	92,85
254,974	86,29
255,517	86,59
256,06	95,03
256,603	88,71
257,146	94,56
257,689	93,83
258,232	85,5
258,774	94,42
259,317	84,97
259,859	88,37
260,401	95,09
260,943	91,53
261,485	92,96
262,027	94,9
262,569	88,79
263,11	81,72
263,652	101,64
264,193	89,83
264,734	88,7
265,275	90,29
265,816	91,64
266,357	90,62
266,898	88,97
267,438	91,04
267,979	95,48
268,519	95,39
269,059	93,88
269,6	92,23
270,14	92,95
270,68	88,25
271,219	94,1
271,759	89,7
272,298	87,68
272,838	85,84
273,377	88,04
273,916	89,49
274,455	86,46
274,994	95,38
275,533	85,11
276,072	91,24
276,61	101,36
277,149	83,86
277,687	85,16
278,225	85,83
278,763	91,25
279,301	84,56
279,839	91,37
280,377	85,9
280,914	91,74
281,452	90,2
281,989	97,91
282,526	87,37
283,064	92,05
283,601	88,55
284,137	89,79
284,674	90,3
285,211	95,49
285,747	89,94
286,284	93,17
286,82	88,44
287,356	91,44
287,892	95,76
288,428	90,31
288,964	90,46
289,5	90,05
290,035	92,62
290,571	86,6
291,106	99,55
291,641	90,29
292,176	89,19
292,711	87,91
293,246	89,36
293,781	87,93
294,315	83,97
294,85	94,96
295,384	91,57
295,918	84,59
296,453	96,29
296,987	91,87
297,52	90,3
298,054	93,43
298,588	90,4
299,121	96,4
299,655	87,13
300,188	85,81
300,721	91,19
301,254	89,29
301,787	88,98
302,32	91,79
302,853	85,87
303,385	92,45
303,918	91,89
304,45	83,37
304,982	87,97
305,514	85,63
306,046	84
306,578	87,29
307,11	84,33
307,641	95,5
308,173	90,35
308,704	91,25
309,236	89,35
309,767	90,86
310,298	89,16
310,829	91,05
311,359	86,1
311,89	87,43
312,421	95,17
312,951	85,25
313,481	90,85
314,012	87,59
314,542	89,07
315,072	84,44
315,601	86,59
316,131	88,81
316,661	89,72
317,19	90,69
317,72	83,16
318,249	86,36
318,778	94,4
319,307	85,21
319,836	87,71
320,365	88,8
320,893	88,58
321,422	82,61
321,95	87,48
322,479	88,68
323,007	80,77
323,535	81,8
324,063	85,28
324,591	90,24
325,118	88,65
325,646	87,09
326,173	86,69
326,701	88,68
327,228	84,9
327,755	89,4
328,282	81,84
328,809	83,56
329,336	82,82
329,862	77,61
330,389	93,8
330,915	89,37
331,441	82,45
331,968	82,94
332,494	83,63
333,02	83,45
333,545	81,21
334,071	81,78
334,597	85,17
335,122	86
335,648	81,24
336,173	79,58
336,698	80,28
337,223	84,01
337,748	79,75
338,272	76,88
338,797	85,1
339,322	82,58
339,846	80,29
340,37	84,99
340,894	86,11
341,419	80,16
341,942	78,3
342,466	75,57
342,99	78,58
343,514	75,45
344,037	76,19
344,56	81,38
345,084	68,85
345,607	79,99
346,13	76,88
346,653	74,78
347,175	74,5
347,698	81,76
348,221	72,05
348,743	72,18
349,265	75,85
349,787	73,41
350,309	68,19
350,831	73,66
351,353	64,25
351,875	68,13
352,397	63,42
352,918	70,95
353,439	75,74
353,961	69,47
354,482	65,47
355,003	66,57
355,524	63,7
356,044	63,5
356,565	68,36
357,086	66,51
357,606	65,39
358,126	68,3
358,646	64,23
359,167	65,72
359,687	63,99
360,206	66,56
360,726	68,04
361,246	65,97
361,765	67,02
362,285	61,39
362,804	61,53
363,323	63,38
363,842	65,52
364,361	66,15
364,88	66,1
365,398	65,22
365,917	65,15
366,435	62,91
366,954	65,79
367,472	60,28
367,99	66,78
368,508	63,21
369,026	62,22
369,544	61,89
370,061	59,79
370,579	57,66
371,096	56,6
371,613	60,95
372,131	62,31
372,648	60,01
373,165	55,55
373,681	58,42
374,198	59,19
374,715	59,01
375,231	58,98
375,747	55,88
376,264	52,79
376,78	59,85
377,296	56,3
377,812	56,02
378,327	58,36
378,843	51,96
379,359	54,92
379,874	52,91
380,389	53,12
380,905	52,12
381,42	49,92
381,935	52,75
382,449	49,67
382,964	50,59
383,479	49,36
383,993	50,52
384,508	46,91
385,022	45,13
385,536	44,96
386,05	48,33
386,564	46,43
387,078	43,77
387,592	44,64
388,105	43,93
388,619	44,27
389,132	41,19
389,645	41,9
390,158	40,45
390,671	41,17
391,184	42,23
391,697	38,87
392,21	38,56
392,722	41,14
393,235	38,78
393,747	38,64
394,259	35,91
394,771	38,65
395,283	38,42
395,795	37,7
396,307	36,51
396,818	35,96
397,33	37,36
397,841	34
398,353	36,47
398,864	34,86
399,375	33,77
399,886	30,88
400,397	30,8
400,907	29,91
401,418	30,16
401,928	31,49
402,439	29,25
402,949	29,96
403,459	27,78
403,969	29,03
404,479	26,78
404,989	25,11
405,498	25,96
406,008	23,92
406,517	23,26
407,027	23,31
407,536	22,7
408,045	21,91
408,554	21,08
409,063	19,26
409,572	19,41
410,08	19,64
410,589	18,95
411,097	17,71
411,606	17,18
412,114	16,87
412,622	15,9
413,13	16,36
413,638	15,98
414,145	14,4
414,653	14,55
415,16	13,99
415,668	13,71
416,175	13,06
416,682	12,56
417,189	12,67
417,696	12,44
418,203	12,56
418,71	12,72
419,216	12,13
419,723	11,7
420,229	11,2
420,735	11,71
421,242	11,19
421,748	11,18
422,254	11,15
422,759	10,71
423,265	10,26
423,771	10,1
424,276	10,15
424,781	10,74
425,287	10,13
425,792	9,8
426,297	9,73
426,802	9,75
427,306	10,01
427,811	9,63
428,316	9,51
428,82	9,55
429,324	9,66
429,829	9,18
430,333	9,14
430,837	9,03
431,34	9,3
431,844	8,99
432,348	8,8
432,851	8,6
433,355	8,92
433,858	8,72
434,361	8,8
434,864	8,62
435,367	8,19
435,87	8,45
436,373	8,61
436,876	8,59
437,378	8,73
437,88	8,18
438,383	8,12
438,885	8,65
439,387	8,33
439,889	8,37
440,391	8,47
440,892	8,45
441,394	8,31
441,896	8,22
442,397	8,5
442,898	8,41
443,399	8,07
443,9	8,6
444,401	8,35
444,902	8,26
445,403	8,38
445,903	8,51
446,404	8,43
446,904	8,28
447,405	8,65
447,905	8,59
448,405	8,98
448,905	9,26
449,404	8,99
449,904	8,94
450,404	9,17
450,903	8,96
451,403	8,89
451,902	9,24
452,401	9,25
452,9	9,3
453,399	9,04
453,898	9,62
454,396	9,53
454,895	9,35
455,393	9,41
455,892	9,49
456,39	9,4
456,888	9,42
457,386	9,67
457,884	9,03
458,382	9,63
458,879	9,32
459,377	9,39
459,874	9,29
460,372	9,73
460,869	9,61
461,366	9,54
461,863	9,48
462,36	9,65
462,857	9,53
463,353	9,19
463,85	9,63
464,346	9,43
464,843	9,57
465,339	9,52
465,835	9,39
466,331	9,49
466,827	9,13
467,323	9,3
467,818	9,19
468,314	9,31
468,809	9,32
469,305	9,34
469,8	9,41
470,295	9,33
470,79	9,35
471,285	9,44
471,78	9,36
472,274	9,4
472,769	9,42
473,263	9,31
473,758	9,37
474,252	9,18
474,746	9,49
475,24	8,94
475,734	9,33
476,228	9,22
476,721	9,4
477,215	9,5
477,708	9,66
478,202	9,53
478,695	9,61
479,188	9,6
479,681	9,59
480,174	9,56
480,667	9,55
481,159	9,49
481,652	9,76
482,144	9,77
482,637	9,7
483,129	9,69
483,621	9,75
484,113	9,8
484,605	9,87
485,097	9,74
485,588	9,64
486,08	10,03
486,571	9,78
487,063	10,14
487,554	10,12
488,045	10,22
488,536	10,14
489,027	10,4
489,518	10,43
490,008	10,24
490,499	10,17
490,989	10,58
491,48	10,85
491,97	10,57
492,46	10,81
492,95	10,73
493,44	10,86
493,93	11,17
494,419	10,91
494,909	11,49
495,398	11,32
495,888	11,62
496,377	12,1
496,866	11,92
497,355	12,19
497,844	12,2
498,333	12,28
498,821	12,49
499,31	12,7
499,798	12,81
500,287	12,99
500,775	13,32
501,263	13,83
501,751	13,87
502,239	14,01
502,727	14,27
503,215	14,65
503,702	14,71
504,19	14,98
504,677	15,36
505,164	15,54
505,651	15,72
506,139	16,29
506,625	16,41
507,112	16,81
507,599	17,45
508,086	17,36
508,572	17,97
509,058	18,18
509,545	18,41
510,031	18,6
510,517	19,4
511,003	19,73
511,489	20,02
511,974	20,33
512,46	20,5
512,946	21,34
513,431	21,4
513,916	21,49
514,401	22,4
514,887	23,09
515,371	23,2
515,856	23,75
516,341	24,02
516,826	24,52
517,31	25,09
517,795	25,34
518,279	25,93
518,763	26,23
519,247	26,73
519,731	27,29
520,215	28,12
520,699	28,33
521,182	28,8
521,666	29,41
522,149	29,74
522,633	30,41
523,116	30,41
523,599	30,89
524,082	31,9
524,565	32,03
525,048	32,31
525,53	32,88
526,013	33,24
526,495	33,54
526,978	34,01
527,46	34,17
527,942	34,53
528,424	34,44
528,906	35,08
529,388	35,2
529,87	35,81
530,351	35,57
530,833	36,19
531,314	36,06
531,795	36,33
532,277	36,68
532,758	37,15
533,238	37,06
533,719	37,54
534,2	37,5
534,681	37,44
535,161	38,01
535,642	37,9
536,122	37,96
536,602	37,99
537,082	38,4
537,562	38,3
538,042	38,48
538,522	38,21
539,001	38,31
539,481	38,54
539,96	38,62
540,44	38,79
540,919	38,61
541,398	38,92
541,877	39,3
542,356	39,31
542,835	39,23
543,313	39,08
543,792	39,46
544,27	39,17
544,749	39,58
545,227	39,52
545,705	39,52
546,183	39,8
546,661	39,4
547,139	39,62
547,616	39,41
548,094	40
548,571	39,67
549,049	39,88
549,526	39,75
550,003	40,3
550,48	39,7
550,957	40,01
551,434	39,96
551,911	39,9
552,387	40,17
552,864	40,02
553,34	39,94
553,817	40,31
554,293	40,19
554,769	40,62
555,245	40,47
555,721	39,67
556,197	40,14
556,672	40,21
557,148	40,31
557,623	39,78
558,099	40,34
558,574	40,32
559,049	39,84
559,524	39,99
559,999	39,77
560,474	39,9
560,948	39,28
561,423	39,51
561,897	39,22
562,372	38,91
562,846	39,14
563,32	38,87
563,794	38,73
564,268	38,79
564,742	38,32
565,216	38,24
565,69	38,34
566,163	37,99
566,636	37,68
567,11	37,67
567,583	37,37
568,056	37,15
568,529	37,11
569,002	36,68
569,475	36,53
569,947	36,13
570,42	36,12
570,892	35,88
571,365	35,57
571,837	35,21
572,309	35,24
572,781	34,9
573,253	34,69
573,725	34,24
574,197	34,13
574,668	34,34
575,14	33,85
575,611	33,42
576,082	33,2
576,554	33,23
577,025	32,93
577,496	32,71
577,967	32,66
578,437	32,47
578,908	32,21
579,379	31,87
579,849	31,84
580,319	31,98
580,79	31,56
581,26	31,2
581,73	31,13
582,2	31,33
582,669	30,63
583,139	30,72
583,609	30,59
584,078	30,34
584,548	30,39
585,017	30
585,486	29,85
585,955	29,48
586,424	29,79
586,893	29,58
587,362	29,55
587,83	29,15
588,299	29,07
588,767	28,89
589,236	28,89
589,704	28,78
590,172	28,81
590,64	28,67
591,108	28,68
591,576	28,51
592,043	28,36
592,511	28,26
592,978	28,1
593,446	27,95
593,913	27,95
594,38	27,78
594,847	27,4
595,314	27,75
595,781	27,7
596,248	27,69
596,715	27,28
597,181	27,49
597,647	27,42
598,114	27,41
598,58	27,54
599,046	27,43
599,512	27,11
599,978	27,16
600,444	27,06
600,91	27,12
601,375	26,83
601,841	26,85
602,306	26,77
602,771	26,76
603,236	26,85
603,702	26,75
604,167	26,46
604,631	26,49
605,096	26,36
605,561	26,28
606,025	26,02
606,49	26,04
606,954	26,09
607,418	26
607,882	25,91
608,347	25,76
608,81	25,79
609,274	25,17
609,738	25,17
610,202	25,26
610,665	25,06
611,128	24,9
611,592	24,83
612,055	24,65
612,518	24,5
612,981	24,26
613,444	24,31
613,907	24,04
614,369	23,97
614,832	24,02
615,294	23,47
615,757	23,67
616,219	23,65
616,681	23,27
617,143	23,31
617,605	23,24
618,067	23,02
618,529	22,7
618,99	22,71
619,452	22,84
619,913	22,53
620,375	22,26
620,836	22,29
621,297	22,27
621,758	22,24
622,219	22,16
622,68	21,95
623,14	22,12
623,601	22,06
624,061	21,85
624,522	21,65
624,982	21,86
625,442	21,7
625,902	21,7
626,362	21,54
626,822	21,81
627,282	21,45
627,742	21,48
628,201	21,52
628,661	21,5
629,12	21,47
629,579	21,51
630,038	21,5
630,497	21,32
630,956	21,31
631,415	21,25
631,874	21,37
632,332	21,32
632,791	21,14
633,249	21,12
633,708	20,93
634,166	21
634,624	20,74
635,082	20,59
635,54	20,59
635,998	20,49
636,455	20,38
636,913	20,07
637,37	20
637,828	19,79
638,285	19,8
638,742	19,46
639,199	19,16
639,656	19,11
640,113	18,93
640,57	18,66
641,027	18,36
641,483	18,46
641,94	17,82
642,396	17,82
642,852	17,54
643,309	17,32
643,765	17,12
644,221	16,85
644,676	16,71
645,132	16,61
645,588	16,43
646,043	15,99
646,499	15,87
646,954	15,7
647,409	15,52
647,864	15,37
648,319	15,22
648,774	14,97
649,229	14,93
649,684	14,79
650,139	14,66
650,593	14,44
651,047	14,3
651,502	14,27
651,956	14,18
652,41	14,09
652,864	14,05
653,318	14
653,772	13,95
654,225	13,87
654,679	13,59
655,133	13,57
655,586	13,55
656,039	13,39
656,492	13,4
656,946	13,16
657,399	13,14
657,851	12,91
658,304	12,9
658,757	12,73
659,209	12,49
659,662	12,42
660,114	12,2
660,567	12,2
661,019	11,89
661,471	11,86
661,923	11,67
662,375	11,39
662,826	11,28
663,278	11,11
663,73	11,08
664,181	10,97
664,632	10,76
665,084	10,64
665,535	10,45
665,986	10,29
666,437	10,2
666,888	10,09
667,338	10,07
667,789	9,99
668,24	9,85
668,69	9,9
669,14	9,82
669,591	9,82
670,041	9,69
670,491	9,53
670,941	9,62
671,391	9,66
671,84	9,65
672,29	9,6
672,74	9,64
673,189	9,6
673,638	9,56
674,088	9,72
674,537	9,73
674,986	9,71
675,435	9,88
675,883	10
676,332	10,01
676,781	10,15
677,229	10,24
677,678	10,39
678,126	10,4
678,574	10,57
679,022	10,66
679,47	10,73
679,918	10,98
680,366	11,13
680,814	11,17
681,261	11,3
681,709	11,63
682,156	11,69
682,604	11,97
683,051	12,21
683,498	12,37
683,945	12,64
684,392	13,01
684,839	13,23
685,286	13,51
685,732	13,77
686,179	14,25
686,625	14,6
687,071	14,85
687,518	15,46
687,964	15,91
688,41	16,36
688,856	16,94
689,301	17,54
689,747	18,04
690,193	18,73
690,638	19,41
691,084	20,18
691,529	20,78
691,974	21,58
692,419	22,44
692,864	22,96
693,309	24,02
693,754	24,79
694,199	25,41
694,643	26,17
695,088	27,3
695,532	28,1
695,977	28,83
696,421	29,59
696,865	30,34
697,309	31,28
697,753	32,02
698,197	33,04
698,64	33,63
699,084	34,38
699,527	35,14
699,971	35,87
700,414	36,56
700,857	37,55
701,3	38,24
701,743	38,77
702,186	39,49
702,629	40,18
703,072	40,67
703,515	41,49
703,957	41,94
704,399	42,61
704,842	43,17
705,284	43,52
705,726	44,32
706,168	44,59
706,61	45,63
707,052	45,96
707,494	46,19
707,935	46,69
708,377	47,41
708,818	47,94
709,26	48,33
709,701	48,49
710,142	48,92
710,583	49,63
711,024	49,91
711,465	50,79
711,905	50,86
712,346	51,21
712,787	51,6
713,227	51,97
713,667	52,8
714,108	53,02
714,548	53,23
714,988	53,44
715,428	53,95
715,868	54,35
716,307	54,3
716,747	55,05
717,186	55,2
717,626	55,6
718,065	56,18
718,504	55,89
718,944	56,77
719,383	56,82
719,822	57
720,261	57,31
720,699	57,43
721,138	57,64
721,576	58,3
722,015	58,26
722,453	58,67
722,892	58,88
723,33	59,19
723,768	59,33
724,206	59,67
724,644	59,68
725,081	60,04
725,519	60,2
725,957	60,09
726,394	60,54
726,832	60,68
727,269	60,95
727,706	60,99
728,143	61,24
728,58	61,36
729,017	61,29
729,454	61,83
729,89	61,81
730,327	61,72
730,764	62,12
731,2	62,22
731,636	62,25
732,072	62,55
732,509	62,64
732,945	62,51
733,38	62,81
733,816	62,7
734,252	62,92
734,688	62,54
735,123	62,95
735,559	62,92
735,994	62,97
736,429	63,22
736,864	63,22
737,299	62,84
737,734	63,08
738,169	63,46
738,604	63,61
739,038	63,6
739,473	63,45
739,907	63,6
740,342	63,75
740,776	63,3
741,21	63,81
741,644	63,69
742,078	64
742,512	63,88
742,946	64,12
743,379	63,64
743,813	63,79
744,246	63,72
744,68	63,65
745,113	63,74
745,546	63,72
745,979	63,82
746,412	63,93
746,845	63,52
747,278	64,2
747,711	63,85
748,143	63,73
748,576	63,66
749,008	63,88
749,441	63,62
749,873	63,72
750,305	63,51
750,737	63,59
751,169	63,65
751,601	63,77
752,032	63,46
752,464	63,68
752,896	63,52
753,327	63,32
753,758	63,52
754,19	63,28
754,621	63,49
755,052	63,78
755,483	63,18
755,914	63,23
756,344	63,64
756,775	63,47
757,206	63,49
757,636	63,04
758,066	63,39
758,497	63,06
758,927	63,14
759,357	63,2
759,787	63,13
760,217	63,13
760,647	63,09
761,076	63,24
761,506	62,94
761,935	62,82
762,365	62,96
762,794	62,8
763,223	62,87
763,653	63
764,082	62,89
764,51	63,05
764,939	62,91
765,368	62,91
765,797	63,04
766,225	62,88
766,654	62,8
767,082	62,58
767,51	62,6
767,938	62,46
768,367	62,41
768,795	62,63
769,222	62,84
769,65	62,72
770,078	62,68
770,505	62,43
770,933	62,56
771,36	62,41
771,788	62,8
772,215	62,72
772,642	62,43
773,069	62,35
773,496	62,39
773,923	62,41
774,349	62,51
774,776	62,42
775,203	62,4
775,629	62,17
776,055	62,37
776,482	62,27
776,908	62,31
777,334	62,15
777,76	62,45
778,186	62,11
778,611	62,58
779,037	62,21
779,463	62,26
779,888	61,97
780,314	61,94
780,739	62,42
781,164	62,36
781,589	62,13
782,014	62,06
782,439	62,36
782,864	62,01
783,289	62,22
783,713	62,07
784,138	61,97
784,562	62
784,987	61,9
785,411	62,21
785,835	62
786,259	62,14
786,683	61,97
787,107	61,93
787,531	62,07
787,954	62,05
788,378	62,15
788,802	62,11
789,225	62,02
789,648	61,98
790,071	61,89
790,495	61,62
790,918	62,06
791,34	62,12
791,763	62,01
792,186	62,1
792,609	62,09
793,031	62,07
793,454	61,85
793,876	61,74
794,298	61,68
794,721	61,96
795,143	62,11
795,565	61,87
795,986	62,01
796,408	62,02
796,83	61,88
797,252	61,98
797,673	61,94
798,094	61,73
798,516	61,54
798,937	61,94
799,358	61,79
799,779	61,73
800,2	61,8
800,621	61,89
801,042	61,82
801,462	61,58
801,883	61,65
802,303	61,82
802,724	61,79
803,144	61,99
803,564	61,72
803,984	61,96
804,404	62,01
804,824	62,25
805,244	61,91
805,664	61,96
806,084	61,94
806,503	62,03
806,923	61,93
807,342	61,5
807,761	61,71
808,18	61,91
808,599	61,82
809,018	61,88
809,437	61,83
809,856	61,48
810,275	61,54
810,693	62
811,112	61,83
811,53	61,8
811,949	61,88
812,367	61,79
812,785	61,76
813,203	61,75
813,621	61,79
814,039	61,6
814,457	61,31
814,874	62,01
815,292	61,8
815,709	61,56
816,127	61,88
816,544	61,94
816,961	62,08
817,378	62,07
817,795	61,69
818,212	61,49
818,629	61,81
819,046	61,8
819,462	61,93
819,879	61,8
820,295	61,72
820,712	61,39
821,128	61,71
821,544	61,68
821,96	61,61
822,376	61,42
822,792	61,56
823,208	61,71
823,624	61,81
824,039	61,63
824,455	61,46
824,87	61,79
825,286	61,6
825,701	61,79
826,116	61,64
826,531	61,48
826,946	61,74
827,361	61,37
827,776	61,52
828,19	61,26
828,605	61,51
829,02	61,77
829,434	61,31
829,848	61,92
830,263	61,54
830,677	61,42
831,091	61,56
831,505	61,64
831,919	61,34
832,332	61,16
832,746	61,52
833,16	61,53
833,573	61,46
833,987	61,39
834,4	61,53
834,813	61,55
835,226	61,6
835,639	61,44
836,052	61,53
836,465	61,59
836,878	61,8
837,29	61,52
837,703	61,53
838,116	61,64
838,528	61,39
838,94	61,78
839,352	61,31
839,765	61,66
840,177	61,5
840,589	61,53
841	61,48
841,412	61,41
841,824	61,19
842,235	61,22
842,647	61,46
843,058	61,57
843,47	61,37
843,881	61,56
844,292	61,74
844,703	61,34
845,114	61,93
845,525	61,42
845,935	61,51
846,346	61,5
846,757	61,52
847,167	61,49
847,577	61,6
847,988	61,27
848,398	61,22
848,808	61,12
849,218	61,26
849,628	61,32
850,038	61,24
850,448	61,36
850,857	61,42
851,267	61,51
851,676	61,26
852,086	61,46
852,495	61,52
852,904	61,53
853,313	61,2
853,722	61,27
854,131	61,34
854,54	61,32
854,949	61,36
855,357	61,25
855,766	61,28
856,174	61,12
856,583	61,1
856,991	61,51
857,399	61,28
857,807	61,73
858,215	61,32
858,623	61,47
859,031	61,49
859,439	61,9
859,846	61,65
860,254	61,7
860,661	61,4
861,069	61,19
861,476	61,4
861,883	61,05
862,29	61,36
862,697	61,35
863,104	60,84
863,511	61,01
863,918	61,28
864,325	61
864,731	60,74
865,138	61,31
865,544	61,55
865,95	61,11
866,357	61,22
866,763	61,39
867,169	61,35
867,575	61,22
867,98	61,52
868,386	61,66
868,792	61,47
869,197	61,6
869,603	61,18
870,008	61,26
870,414	61,01
870,819	61,28
871,224	61,11
871,629	60,87
872,034	61,33
872,439	61,34
872,844	61,23
873,248	61,53
873,653	61,3
874,057	61,26
874,462	61,45
874,866	61,32
875,27	61,39
875,674	61,41
876,078	61,19
876,482	61,34
876,886	61,34
877,29	61,16
877,694	61,18
878,097	60,99
878,501	60,84
878,904	60,89
879,308	61,29
879,711	60,86
880,114	61,48
880,517	61,35
880,92	61,45
881,323	61,44
881,726	61,45
882,128	61,2
882,531	61,65
882,934	61,25
883,336	61,15
883,738	61,45
884,141	61,51
884,543	61,48
884,945	61,35
885,347	61,06
885,749	61,14
886,151	61,31
886,552	61,24
886,954	61,11
887,355	61,07
887,757	60,92
888,158	61,17
888,56	61,51
888,961	61,54
889,362	61,26
889,763	61,43
890,164	61,31
890,565	61,44
890,965	61,32
891,366	61,53
891,767	61,55
892,167	61,49
892,567	61,05
892,968	61,19
893,368	61,1
893,768	61,43
894,168	61,4
894,568	60,94
894,968	61,38
895,368	61,17
895,767	61,21
896,167	61,13
896,566	61,12
896,966	61,07
897,365	61,27
897,764	61,46
898,164	61,3
898,563	61,31
898,962	61,2
899,361	61,43
899,759	61,21
900,158	61,48
900,557	61,37
900,955	61,26
901,354	60,86
901,752	61,05
902,15	61,42
902,548	61,17
902,947	61,03
903,345	61,43
903,742	61,23
904,14	61,2
904,538	61,54
904,936	61,21
905,333	61,05
905,731	61,02
906,128	61,01
906,525	61,44
906,923	61,25
907,32	61,12
907,717	60,76
908,114	61,23
908,511	61,1
908,907	61,1
909,304	61,28
909,701	61,18
910,097	61,13
910,494	61,33
910,89	61,25
911,286	61,21
911,682	61,38
912,078	61,47
912,474	61,34
912,87	61,53
913,266	61,25
913,662	61,18
914,058	61,32
914,453	61,19
914,849	61,4
915,244	61,18
915,639	61,28
916,034	61,25
916,43	61,49
916,825	61,47
917,22	61,44
917,614	61,4
918,009	61,09
918,404	60,91
918,798	61,1
919,193	60,83
919,587	60,96
919,982	61,17
920,376	61,25
920,77	61,31
921,164	61,03
921,558	61,52
921,952	60,94
922,346	61,08
922,74	61,01
923,133	60,95
923,527	60,95
923,92	60,84
924,314	61,1
924,707	61,08
925,1	60,94
925,493	61,47
925,886	61,05
926,279	61,22
926,672	60,9
927,065	61,1
927,457	60,84
927,85	60,62
928,243	60,98
928,635	61,13
929,027	60,86
929,42	60,91
929,812	61,34
930,204	60,93
930,596	60,67
930,988	61,4
931,379	60,92
931,771	61,36
932,163	61,34
932,554	61,02
932,946	60,82
933,337	60,82
933,729	60,61
934,12	61,21
934,511	60,97
934,902	60,39
935,293	61
935,684	60,57
936,075	60,81
936,465	60,82
936,856	60,63
937,246	61,06
937,637	60,75
938,027	61,4
938,417	60,85
938,808	60,39
939,198	60,9
939,588	60,95
939,978	60,58
940,368	61,02
940,757	60,49
941,147	60,23
941,537	61,31
941,926	60,28
942,315	60,49
942,705	60,82
943,094	60,72
943,483	60,45
943,872	60,73
944,261	60,79
944,65	60,73
945,039	60,83
945,428	60,39
945,816	60,78
946,205	60,4
946,593	60,47
946,982	61,23
947,37	60,4
947,758	60,77
948,146	60,41
948,534	59,79
948,922	59,9
949,31	60,32
949,698	60,06
950,086	60,8
950,473	60,35
950,861	60,2
951,248	59,88
951,636	60,4
952,023	59,6
952,41	59,94
952,797	59,96
953,184	60,49
953,571	59,69
953,958	59,91
954,345	59,82
954,731	60,18
955,118	60,16
955,505	59,91
955,891	60,28
956,277	59,96
956,664	60,16
957,05	59,5
957,436	60,27
957,822	59,97
958,208	59,81
958,594	59,62
958,979	59,43
959,365	59,7
959,751	59,87
960,136	60,04
960,522	59,75
960,907	59,97
961,292	60,12
961,677	59,6
962,062	59,35
962,447	59,52
962,832	58,95
963,217	59,06
963,602	59,65
963,986	59,64
964,371	59,3
964,756	59,77
965,14	59,95
965,524	59,38
965,908	59,37
966,293	59,13
966,677	59,45
967,061	59,99
967,445	59,61
967,828	59,78
968,212	59,8
968,596	59,71
968,979	59,37
969,363	59,83
969,746	59,48
970,129	59,07
970,513	59,66
970,896	59,45
971,279	59,33
971,662	60,02
972,045	59,55
972,428	59,29
972,81	59,53
973,193	59,83
973,575	59,26
973,958	59,52
974,34	59,14
974,723	59,57
975,105	59,27
975,487	59,85
975,869	59,8
976,251	59,6
976,633	59,6
977,015	59,39
977,396	59,53
977,778	59,33
978,16	59,39
978,541	59,13
978,922	59,36
979,304	59,83
979,685	59,19
980,066	60,15
980,447	59,58
980,828	59,63
981,209	59,74
981,59	59,55
981,97	59,79
982,351	59,95
982,732	59,94
983,112	59,74
983,493	60
983,873	59,82
984,253	59,99
984,633	59,44
985,013	59,63
985,393	59,61
985,773	59,1
986,153	59,86
986,533	59,44
986,912	59,88
987,292	59,92
987,671	59,81
988,051	60,34
988,43	60,08
988,809	59,57
989,188	60,49
989,567	59,98
989,946	60,18
990,325	59,2
990,704	59,81
991,083	59,59
991,461	59,96
991,84	59,99
992,218	59,82
992,597	60,44
992,975	60,06
993,353	60,29
993,732	60,06
994,11	59,98
994,488	60,63
994,866	60,28
995,243	60,05
995,621	59,83
995,999	59,66
996,376	60,24
996,754	59,5
997,131	60,09
997,509	60,18
997,886	59,96
998,263	60,49
998,64	59,83
999,017	59,95
999,394	60,12
999,771	60,29
1000,148	60,02
1000,524	60,38
1000,901	60,29
1001,277	60,57
1001,654	60,67
1002,03	60,56
1002,406	60,23
1002,783	60,72
1003,159	60,33
1003,535	60,46
1003,911	60,38
1004,286	61,33
1004,662	60,27
1005,038	60,66
1005,414	60,77
1005,789	60,74
1006,164	60,15
1006,54	60,67
1006,915	60,31
1007,29	59,9
1007,665	60,84
1008,04	60,76
1008,415	60,42
1008,79	60,61
1009,165	60,68
1009,54	60,54
1009,914	61,22
1010,289	60,96
1010,663	61,01
1011,038	60,98
1011,412	61,16
1011,786	60,53
1012,16	60,52
1012,535	61,1
1012,909	61,45
1013,282	60,74
1013,656	61,1
1014,03	60,38
1014,404	61,08
1014,777	60,98
1015,151	61,13
1015,524	61,48
1015,897	61,26
1016,271	61,3
1016,644	61,09
1017,017	61,23
1017,39	61,87
1017,763	61,34
1018,136	61,06
1018,508	61,21
1018,881	61,38
1019,254	61,23
1019,626	60,96
1019,999	60,94
1020,371	60,48
1020,743	61,61
1021,116	61,31
1021,488	61,07
1021,86	61,05
1022,232	61,5
1022,604	60,95
1022,975	62,43
1023,347	61,65
1023,719	61,55
1024,09	62,02
1024,462	61,79
1024,833	61,22
1025,204	62,31
1025,576	61,94
1025,947	61,73
1026,318	62,2
1026,689	62,04
1027,06	61,61
1027,431	61,4
1027,801	62,02
1028,172	61,97
1028,543	61,41
1028,913	61,77
1029,284	62,25
1029,654	62,2
1030,024	62,37
1030,394	61,95
1030,764	61,71
1031,135	61,86
1031,504	61,75
1031,874	62,47
1032,244	61,31
1032,614	62,14
1032,983	61,94
1033,353	61,4
1033,722	61,27
1034,092	61,78
1034,461	61,89
1034,83	62,86
1035,2	62,25
1035,569	61,95
1035,938	62,29
1036,307	63,16
1036,675	62,53
1037,044	62,31
1037,413	62,07
1037,781	62,89
1038,15	62,47
1038,518	62,6
1038,887	63,33
1039,255	62,6
1039,623	62,05
1039,991	62,95
1040,359	62,71
1040,727	62,59
1041,095	62,32
1041,463	63,13
1041,831	62,34
1042,198	63,42
1042,566	62,32
1042,933	62,67
1043,301	63,26
1043,668	63,46
1044,035	62,44
1044,402	62,79
1044,77	63,05
1045,137	63,34
1045,503	62,8
1045,87	63,1
1046,237	63,04
1046,604	62,58
1046,97	63,54
1047,337	63,42
1047,703	63,41
1048,07	63,27
1048,436	63,6
1048,802	63,08
1049,168	63,61
1049,534	64,73
1049,9	63,01
1050,266	63,39
1050,632	63,5
1050,998	63,77
1051,364	63,47
1051,729	64,1
1052,095	63,8
1052,46	63,73
1052,825	63,23
1053,191	63,27
1053,556	64,54
1053,921	63,91
1054,286	64,03
1054,651	64,02
1055,016	64,12
1055,381	63,75
1055,745	64,26
1056,11	64,2
1056,475	64,46
1056,839	65,03
1057,203	62,81
1057,568	64,59
1057,932	63,83
1058,296	63,65
1058,66	64,27
1059,024	64,19
1059,388	64,19
1059,752	63,86
1060,116	64,97
1060,48	66,39
1060,843	64,67
1061,207	65,48
1061,57	65,74
1061,934	65,52
1062,297	63,94
1062,66	65,55
1063,023	64,31
1063,386	64,85
1063,749	65,25
1064,112	64,89
1064,475	65,48
1064,838	64,9
1065,201	64,99
1065,563	63,8
1065,926	64,65
1066,288	64,33
1066,651	64,78
1067,013	64,78
1067,375	65,25
1067,737	64,44
1068,099	64,42
1068,461	65,41
1068,823	64,62
1069,185	63,84
1069,547	65,24
1069,909	64,85
1070,27	65,26
1070,632	64,05
1070,993	64,28
1071,355	65,58
1071,716	63,4
1072,077	65,24
1072,438	65,12
1072,799	64,88
1073,16	66,73
1073,521	66,04
1073,882	65,09
1074,243	65,3
1074,603	65,17
1074,964	64,14
1075,325	66,45
1075,685	65,59
1076,045	65,02
1076,406	65,89
1076,766	64,8
1077,126	65,89
1077,486	65,42
1077,846	65,07
1078,206	64,04
1078,566	65,74
1078,925	64,68
1079,285	65,9
1079,645	63,87
1080,004	65,92
1080,364	66,03
1080,723	67,31
1081,082	64,67
1081,442	65,16
1081,801	65,96
1082,16	65,85
1082,519	64,81
1082,878	64,85
1083,237	66
1083,595	66,6
1083,954	65,94
1084,313	66,21
1084,671	68,17
1085,03	66,07
1085,388	64,78
1085,746	66,83
1086,104	65,18
1086,463	65,03
1086,821	65,7
1087,179	65,17
1087,537	65,64
1087,894	66,16
1088,252	67,47
1088,61	67,74
1088,967	64,91
1089,325	66,26
1089,682	66,63
1090,04	65,58
1090,397	65,25
1090,754	65,61
1091,111	66,31
1091,469	66,11
1091,826	65,82
1092,182	66,8
1092,539	66,08
1092,896	65,43
1093,253	65,63
1093,609	66,03
1093,966	66,19
1094,322	66,27
1094,679	65,43
1095,035	65,95
1095,391	66,98
1095,748	66,22
1096,104	66,99
1096,46	65,84
1096,816	65,85
1097,171	67,73
1097,527	68,51
1097,883	67,96
1098,239	68,66
1098,594	67,75
1098,95	67,16
1099,305	67,55
1099,66	68,47
1100,016	67,85
1100,371	67,16
1100,726	67,97
1101,081	68,28
1101,436	66,4
1101,791	69,68
1102,146	67,79
1102,5	64,82
1102,855	66,13
1103,21	70,38
1103,564	68,34
1103,918	66,44
1104,273	69,55
1104,627	67,89
1104,981	69,25
1105,335	69,41
1105,69	68,45
1106,043	68,96
1106,397	69,37
1106,751	68,28
1107,105	69,89
1107,459	66,94
1107,812	68,66
1108,166	70,57
1108,519	68,1
1108,873	69,42
1109,226	69,49
1109,579	72,4
1109,932	71,47
1110,285	70,76
1110,638	70,91
1110,991	68,99
1111,344	69,44
1111,697	67,41
1112,05	70,46
1112,402	69,8
1112,755	69,78
1113,107	70,51
1113,46	70,94
1113,812	74,64
1114,164	72,03
1114,517	69,96
1114,869	128,53
1115,221	123,53
1115,573	114,21
1115,924	115,44
