Data from D5__Relative__6__00049.txt Node

Date: Thu Feb 01 16:20:06 CET 2024
User: diatiterra
Spectrometer: HDX00911
Trigger mode: 0
Integration Time (sec): 6,000000E-3
Scans to average: 2
Nonlinearity correction enabled: false
Boxcar width: 0
Storing dark spectrum: false
XAxis mode: Wavelengths
Number of Pixels in Spectrum: 2068
>>>>>Begin Spectral Data<<<<<
194,468	158,46
195,025	97,22
195,581	109,09
196,138	111,76
196,694	110,99
197,251	76,98
197,807	71,51
198,363	59,76
198,919	64,67
199,474	72,61
200,03	63,07
200,586	68,35
201,141	50
201,696	71,68
202,251	62,98
202,806	62,64
203,361	68,85
203,916	60,54
204,471	58,7
205,025	57,3
205,58	52,02
206,134	51,06
206,688	65,45
207,242	69,19
207,796	54,04
208,35	67,44
208,904	59,89
209,457	72,35
210,011	71,78
210,564	61,83
211,117	70,59
211,67	69,1
212,223	67,53
212,776	57,75
213,329	64,17
213,881	56,99
214,434	59
214,986	63,86
215,538	56,52
216,09	69,27
216,642	83,13
217,194	67,65
217,746	58,29
218,297	54,44
218,849	73,26
219,4	58,33
219,951	69,71
220,502	60,36
221,053	68,45
221,604	71,01
222,155	59,36
222,705	60,82
223,256	60,67
223,806	57,14
224,356	60,82
224,906	73,94
225,456	60,96
226,006	51,37
226,556	68,65
227,106	59,76
227,655	59,16
228,204	62,71
228,754	68,97
229,303	64,71
229,852	67,78
230,401	66,05
230,949	63,84
231,498	65,96
232,047	65,56
232,595	58,62
233,143	62,63
233,691	61,54
234,239	59,02
234,787	64,53
235,335	68,02
235,883	61,05
236,43	69,68
236,978	59,57
237,525	51,26
238,072	63,33
238,619	72,56
239,166	62,75
239,713	58,1
240,26	70,18
240,806	72,39
241,353	59,88
241,899	57,69
242,445	56,8
242,991	60
243,537	67,97
244,083	67,58
244,629	61
245,174	55,17
245,72	67,6
246,265	50,26
246,81	62,5
247,355	62,09
247,9	61,76
248,445	62,42
248,99	65
249,534	58,99
250,079	57,83
250,623	52,72
251,168	54,6
251,712	67,65
252,256	61,49
252,8	55,37
253,343	74,73
253,887	55,74
254,43	54,55
254,974	63,69
255,517	62,15
256,06	71,59
256,603	62,36
257,146	57,46
257,689	59,79
258,232	44,44
258,774	66,07
259,317	52,2
259,859	52,88
260,401	56,74
260,943	59,24
261,485	59,46
262,027	59,79
262,569	59,6
263,11	57,63
263,652	59,89
264,193	61,36
264,734	56,14
265,275	47,4
265,816	64,86
266,357	55,56
266,898	50,51
267,438	64,56
267,979	46,02
268,519	58,33
269,059	68,67
269,6	55,74
270,14	54,59
270,68	63,01
271,219	58,05
271,759	71,15
272,298	67,57
272,838	59,06
273,377	67,6
273,916	70,47
274,455	65,64
274,994	56,67
275,533	56,89
276,072	61,08
276,61	61,54
277,149	62,35
277,687	63,25
278,225	61,76
278,763	58,38
279,301	62,77
279,839	65,43
280,377	62,73
280,914	52,58
281,452	65,92
281,989	59,41
282,526	78,48
283,064	63,75
283,601	67,42
284,137	64,42
284,674	66,85
285,211	65,05
285,747	56,78
286,284	56,47
286,82	60,94
287,356	54,12
287,892	63,54
288,428	56,32
288,964	66,13
289,5	65,9
290,035	68,18
290,571	63,49
291,106	60,11
291,641	66,28
292,176	64,52
292,711	63,37
293,246	55,43
293,781	63,54
294,315	53,57
294,85	73,55
295,384	67,63
295,918	59,04
296,453	64,32
296,987	51,91
297,52	61,41
298,054	66,67
298,588	65,24
299,121	67,6
299,655	63,53
300,188	68,67
300,721	70,81
301,254	61,9
301,787	61,83
302,32	52,85
302,853	65,92
303,385	65,22
303,918	68,57
304,45	64,29
304,982	63,84
305,514	60,11
306,046	52,17
306,578	63,1
307,11	60,77
307,641	66,48
308,173	68,54
308,704	56,82
309,236	60,91
309,767	58,42
310,298	66,04
310,829	63,5
311,359	57,49
311,89	67,84
312,421	56,76
312,951	65,14
313,481	62,94
314,012	60,94
314,542	54,26
315,072	68,51
315,601	64,29
316,131	60,11
316,661	65,34
317,19	66,47
317,72	68,67
318,249	67,22
318,778	75,51
319,307	62,5
319,836	66,1
320,365	65,61
320,893	66,84
321,422	74,4
321,95	65,62
322,479	80,61
323,007	63,48
323,535	63,01
324,063	68,93
324,591	56,08
325,118	66,13
325,646	64,89
326,173	66,67
326,701	55,9
327,228	57,07
327,755	68,53
328,282	60,89
328,809	58,24
329,336	58,21
329,862	57,14
330,389	52,58
330,915	57,51
331,441	62,57
331,968	70,79
332,494	61,73
333,02	63,13
333,545	52,91
334,071	60,51
334,597	64,04
335,122	57,98
335,648	55,77
336,173	58,38
336,698	61,17
337,223	59,36
337,748	50,75
338,272	57,45
338,797	63,93
339,322	62,7
339,846	57,53
340,37	45,9
340,894	46,27
341,419	55,75
341,942	47,09
342,466	60,62
342,99	57,59
343,514	53,92
344,037	53,72
344,56	51,2
345,084	50,25
345,607	48,54
346,13	53,52
346,653	53,74
347,175	50,24
347,698	43,72
348,221	53,52
348,743	56,72
349,265	55,67
349,787	45,37
350,309	41,3
350,831	50,63
351,353	47,87
351,875	51,01
352,397	45,26
352,918	40,83
353,439	43,04
353,961	42,13
354,482	49,79
355,003	39,92
355,524	38,27
356,044	46,89
356,565	39,43
357,086	41,2
357,606	32,34
358,126	38,7
358,646	46,84
359,167	36,96
359,687	39,78
360,206	41,48
360,726	42,8
361,246	32,83
361,765	30,43
362,285	42,01
362,804	40,65
363,323	37,94
363,842	32,75
364,361	29,2
364,88	34,3
365,398	37,19
365,917	33,64
366,435	33,33
366,954	41,04
367,472	38,29
367,99	34,74
368,508	34,67
369,026	34,62
369,544	35,22
370,061	32,34
370,579	33,95
371,096	29,2
371,613	39,89
372,131	28,99
372,648	34,19
373,165	33,42
373,681	30,42
374,198	31,52
374,715	33,9
375,231	31,65
375,747	29,63
376,264	27,94
376,78	28,43
377,296	23,08
377,812	29,87
378,327	28,57
378,843	27,11
379,359	24,29
379,874	28,54
380,389	26,64
380,905	21,29
381,42	26,44
381,935	27,51
382,449	25,62
382,964	27,03
383,479	22,84
383,993	24,64
384,508	24,81
385,022	24,76
385,536	23,19
386,05	26,55
386,564	25,22
387,078	24,19
387,592	23,8
388,105	20,99
388,619	22,08
389,132	21,56
389,645	20,8
390,158	22,66
390,671	21,19
391,184	18,37
391,697	19,38
392,21	19,51
392,722	19,65
393,235	21,14
393,747	19,35
394,259	21,83
394,771	19,51
395,283	19,13
395,795	17,78
396,307	16,96
396,818	17,48
397,33	16,47
397,841	18
398,353	15,15
398,864	16,02
399,375	15,26
399,886	14,69
400,397	14,33
400,907	14,88
401,418	11,88
401,928	13,77
402,439	14
402,949	13,69
403,459	13,81
403,969	13,02
404,479	12,09
404,989	12,97
405,498	10,54
406,008	11,52
406,517	12,53
407,027	10,66
407,536	9,74
408,045	11,1
408,554	10,8
409,063	9,73
409,572	8,18
410,08	9,98
410,589	8,4
411,097	7,36
411,606	8,55
412,114	7,18
412,622	7,52
413,13	8,59
413,638	7,17
414,145	6,69
414,653	6,06
415,16	6,8
415,668	6,59
416,175	6,15
416,682	6,19
417,189	5,88
417,696	6,64
418,203	6,2
418,71	5,79
419,216	5,96
419,723	5,82
420,229	6,04
420,735	5,8
421,242	5,51
421,748	4,79
422,254	4,62
422,759	4,55
423,265	5,01
423,771	4,97
424,276	5,07
424,781	5,45
425,287	4,31
425,792	5,31
426,297	4,59
426,802	4,51
427,306	4,4
427,811	4,3
428,316	4,97
428,82	4,67
429,324	4,55
429,829	3,96
430,333	5,23
430,837	4,57
431,34	4,82
431,844	4,32
432,348	4,34
432,851	4,35
433,355	4,32
433,858	4,12
434,361	4,61
434,864	4,05
435,367	4,23
435,87	4,04
436,373	4,25
436,876	4,59
437,378	3,82
437,88	4,18
438,383	3,9
438,885	4,27
439,387	4,12
439,889	3,82
440,391	3,84
440,892	4
441,394	4,16
441,896	4,2
442,397	3,95
442,898	4,11
443,399	3,83
443,9	3,75
444,401	4,27
444,902	4,1
445,403	4,18
445,903	4,01
446,404	4,06
446,904	3,87
447,405	3,82
447,905	3,91
448,405	3,88
448,905	3,75
449,404	3,75
449,904	3,89
450,404	3,74
450,903	4,07
451,403	3,69
451,902	4,1
452,401	3,83
452,9	4,12
453,399	4,38
453,898	4,05
454,396	3,64
454,895	3,93
455,393	4,12
455,892	3,99
456,39	4,12
456,888	3,89
457,386	4,18
457,884	3,65
458,382	3,64
458,879	3,85
459,377	3,71
459,874	4,15
460,372	3,48
460,869	3,61
461,366	3,55
461,863	3,75
462,36	3,97
462,857	3,76
463,353	3,84
463,85	3,62
464,346	3,87
464,843	3,67
465,339	3,68
465,835	3,82
466,331	4
466,827	3,85
467,323	3,7
467,818	3,41
468,314	3,81
468,809	3,69
469,305	3,73
469,8	3,68
470,295	3,89
470,79	3,68
471,285	3,98
471,78	3,69
472,274	3,82
472,769	3,64
473,263	3,82
473,758	3,61
474,252	3,7
474,746	3,92
475,24	3,88
475,734	3,72
476,228	3,77
476,721	3,85
477,215	3,85
477,708	3,85
478,202	3,68
478,695	3,86
479,188	4
479,681	3,78
480,174	3,42
480,667	3,73
481,159	3,63
481,652	3,76
482,144	3,72
482,637	3,74
483,129	3,7
483,621	3,74
484,113	3,77
484,605	3,68
485,097	3,83
485,588	3,78
486,08	3,82
486,571	3,85
487,063	3,57
487,554	3,64
488,045	3,82
488,536	3,73
489,027	3,63
489,518	3,84
490,008	3,76
490,499	3,65
490,989	3,69
491,48	3,91
491,97	3,72
492,46	3,77
492,95	3,81
493,44	4,07
493,93	3,77
494,419	3,94
494,909	4,06
495,398	3,93
495,888	3,87
496,377	4,16
496,866	3,88
497,355	3,95
497,844	4,05
498,333	4,04
498,821	4,25
499,31	4,01
499,798	4,15
500,287	4,37
500,775	4,42
501,263	4,47
501,751	4,41
502,239	4,52
502,727	4,46
503,215	4,27
503,702	4,37
504,19	4,54
504,677	4,67
505,164	4,68
505,651	4,56
506,139	4,95
506,625	5,01
507,112	5,02
507,599	5,05
508,086	5,17
508,572	5,13
509,058	5,49
509,545	5,53
510,031	5,5
510,517	5,68
511,003	5,9
511,489	5,82
511,974	5,91
512,46	6,15
512,946	6,38
513,431	6,33
513,916	6,53
514,401	6,7
514,887	6,79
515,371	7,08
515,856	7,08
516,341	7,01
516,826	7,39
517,31	7,61
517,795	7,64
518,279	8,27
518,763	8,27
519,247	8,43
519,731	8,55
520,215	8,71
520,699	8,88
521,182	9,3
521,666	9,11
522,149	9,26
522,633	9,67
523,116	9,79
523,599	10,22
524,082	10,33
524,565	10,74
525,048	10,74
525,53	10,75
526,013	11,21
526,495	11,4
526,978	11,31
527,46	11,71
527,942	12,09
528,424	12,4
528,906	12,29
529,388	12,49
529,87	12,41
530,351	13,07
530,833	12,93
531,314	13,05
531,795	13,21
532,277	13,16
532,758	13,51
533,238	13,36
533,719	13,83
534,2	13,66
534,681	13,55
535,161	13,83
535,642	13,84
536,122	13,9
536,602	14,45
537,082	14,27
537,562	14,14
538,042	14,14
538,522	14,64
539,001	14,25
539,481	14,32
539,96	14,49
540,44	14,43
540,919	14,56
541,398	14,64
541,877	14,56
542,356	14,64
542,835	14,49
543,313	14,65
543,792	14,69
544,27	15,05
544,749	14,74
545,227	14,88
545,705	15,04
546,183	14,9
546,661	14,9
547,139	14,95
547,616	14,7
548,094	15,15
548,571	14,88
549,049	15,26
549,526	15,75
550,003	15,39
550,48	15,5
550,957	15,09
551,434	15,31
551,911	15,08
552,387	15,11
552,864	15,21
553,34	15,46
553,817	15,48
554,293	15,31
554,769	15,34
555,245	15,44
555,721	15,21
556,197	15,07
556,672	15,27
557,148	15,28
557,623	14,85
558,099	15,01
558,574	14,89
559,049	14,87
559,524	14,81
559,999	14,86
560,474	14,91
560,948	14,72
561,423	14,56
561,897	14,63
562,372	14,5
562,846	14,65
563,32	14,47
563,794	14,54
564,268	14,09
564,742	14,44
565,216	13,95
565,69	14,15
566,163	13,75
566,636	13,84
567,11	13,45
567,583	13,46
568,056	13,09
568,529	13,22
569,002	12,8
569,475	13,14
569,947	12,91
570,42	12,8
570,892	12,48
571,365	12,35
571,837	12,05
572,309	11,75
572,781	11,94
573,253	11,77
573,725	11,86
574,197	11,51
574,668	11,47
575,14	11,36
575,611	11,01
576,082	11,07
576,554	11,03
577,025	11,09
577,496	10,71
577,967	10,69
578,437	10,56
578,908	10,48
579,379	10,16
579,849	10,12
580,319	10,38
580,79	10,04
581,26	9,99
581,73	9,93
582,2	9,77
582,669	9,82
583,139	9,71
583,609	9,81
584,078	9,4
584,548	9,49
585,017	9,36
585,486	9,22
585,955	9,53
586,424	9,07
586,893	9,1
587,362	9,15
587,83	9,06
588,299	9,08
588,767	9
589,236	9,16
589,704	8,58
590,172	8,72
590,64	8,84
591,108	8,57
591,576	8,76
592,043	8,44
592,511	8,6
592,978	8,42
593,446	8,66
593,913	8,61
594,38	8,5
594,847	8,35
595,314	8,42
595,781	8,32
596,248	8,22
596,715	8,19
597,181	8,13
597,647	8,29
598,114	8,36
598,58	8,29
599,046	8,12
599,512	8,16
599,978	8,23
600,444	8,14
600,91	8,16
601,375	8,09
601,841	7,77
602,306	7,99
602,771	7,91
603,236	8,05
603,702	7,97
604,167	7,88
604,631	7,75
605,096	7,92
605,561	8,01
606,025	7,61
606,49	7,7
606,954	7,54
607,418	7,61
607,882	7,43
608,347	7,55
608,81	7,55
609,274	7,42
609,738	7,36
610,202	7,31
610,665	7,34
611,128	7,05
611,592	7,17
612,055	7,04
612,518	6,99
612,981	7,07
613,444	6,85
613,907	6,92
614,369	6,81
614,832	6,7
615,294	6,73
615,757	6,73
616,219	6,59
616,681	6,64
617,143	6,51
617,605	6,51
618,067	6,38
618,529	6,56
618,99	6,43
619,452	6,46
619,913	6,35
620,375	6,44
620,836	6,45
621,297	6,35
621,758	6,2
622,219	6,17
622,68	6,19
623,14	6,24
623,601	6,22
624,061	6,06
624,522	6,2
624,982	6,2
625,442	6,14
625,902	6,19
626,362	6,04
626,822	6,04
627,282	6,1
627,742	6
628,201	5,94
628,661	6,05
629,12	6,01
629,579	5,95
630,038	5,99
630,497	5,96
630,956	5,86
631,415	5,76
631,874	5,98
632,332	5,86
632,791	5,87
633,249	5,81
633,708	5,83
634,166	5,73
634,624	5,69
635,082	5,74
635,54	5,64
635,998	5,59
636,455	5,63
636,913	5,46
637,37	5,6
637,828	5,48
638,285	5,46
638,742	5,36
639,199	5,31
639,656	5,22
640,113	5,17
640,57	5,11
641,027	5,12
641,483	5,01
641,94	4,98
642,396	5,02
642,852	4,89
643,309	4,77
643,765	4,67
644,221	4,72
644,676	4,68
645,132	4,59
645,588	4,57
646,043	4,52
646,499	4,49
646,954	4,43
647,409	4,36
647,864	4,4
648,319	4,39
648,774	4,18
649,229	4,24
649,684	4,16
650,139	4,19
650,593	4,21
651,047	4,1
651,502	4,07
651,956	4,16
652,41	4,22
652,864	4,1
653,318	4,14
653,772	3,98
654,225	4,13
654,679	3,94
655,133	3,95
655,586	3,95
656,039	4,07
656,492	4,02
656,946	3,98
657,399	3,87
657,851	3,98
658,304	3,92
658,757	3,9
659,209	3,86
659,662	3,88
660,114	3,87
660,567	3,79
661,019	3,68
661,471	3,77
661,923	3,73
662,375	3,81
662,826	3,77
663,278	3,65
663,73	3,69
664,181	3,83
664,632	3,67
665,084	3,78
665,535	3,71
665,986	3,65
666,437	3,72
666,888	3,7
667,338	3,82
667,789	3,72
668,24	3,7
668,69	3,84
669,14	3,78
669,591	3,87
670,041	3,95
670,491	3,9
670,941	3,9
671,391	3,97
671,84	3,95
672,29	4,05
672,74	4,05
673,189	4,17
673,638	4,18
674,088	4,24
674,537	4,27
674,986	4,35
675,435	4,32
675,883	4,46
676,332	4,5
676,781	4,58
677,229	4,68
677,678	4,75
678,126	4,83
678,574	4,87
679,022	4,96
679,47	5,05
679,918	5,15
680,366	5,25
680,814	5,28
681,261	5,28
681,709	5,45
682,156	5,51
682,604	5,56
683,051	5,57
683,498	5,61
683,945	5,77
684,392	5,74
684,839	5,91
685,286	5,9
685,732	5,87
686,179	6,01
686,625	6,04
687,071	6,08
687,518	6,06
687,964	6,09
688,41	6,27
688,856	6,24
689,301	6,48
689,747	6,38
690,193	6,61
690,638	6,7
691,084	6,74
691,529	7,04
691,974	7,27
692,419	7,35
692,864	7,59
693,309	7,88
693,754	8,2
694,199	8,43
694,643	8,68
695,088	9,08
695,532	9,53
695,977	9,67
696,421	10,06
696,865	10,35
697,309	10,77
697,753	11,2
698,197	11,55
698,64	11,89
699,084	12,44
699,527	12,75
699,971	13,2
700,414	13,78
700,857	14,09
701,3	14,49
701,743	14,97
702,186	15,47
702,629	15,94
703,072	16,31
703,515	16,82
703,957	17,13
704,399	17,68
704,842	18,13
705,284	18,63
705,726	19,05
706,168	19,55
706,61	19,96
707,052	20,47
707,494	21,14
707,935	21,46
708,377	22,02
708,818	22,23
709,26	22,76
709,701	23,26
710,142	23,55
710,583	23,96
711,024	24,55
711,465	25,06
711,905	25,46
712,346	25,79
712,787	26,27
713,227	26,82
713,667	27,35
714,108	27,8
714,548	28,14
714,988	28,55
715,428	28,99
715,868	29,59
716,307	29,94
716,747	30,29
717,186	30,59
717,626	31,32
718,065	31,47
718,504	31,72
718,944	32,63
719,383	33,01
719,822	32,86
720,261	33,69
720,699	33,78
721,138	34,47
721,576	34,66
722,015	35,25
722,453	35,57
722,892	35,91
723,33	36,41
723,768	36,08
724,206	36,61
724,644	37,25
725,081	37,15
725,519	37,35
725,957	38,08
726,394	38,5
726,832	39,07
727,269	39,25
727,706	39,08
728,143	39,73
728,58	39,73
729,017	39,92
729,454	40,21
729,89	40,5
730,327	40,89
730,764	40,66
731,2	41,12
731,636	41,5
732,072	41,48
732,509	41,52
732,945	41,79
733,38	41,91
733,816	42,34
734,252	42,41
734,688	42,35
735,123	42,71
735,559	42,79
735,994	43,14
736,429	43
736,864	43,06
737,299	43,32
737,734	43,47
738,169	43,79
738,604	43,57
739,038	43,93
739,473	43,96
739,907	43,7
740,342	43,64
740,776	43,74
741,21	44,01
741,644	43,85
742,078	44,3
742,512	43,89
742,946	44,41
743,379	44,47
743,813	44,29
744,246	44,13
744,68	44,49
745,113	44,15
745,546	44,38
745,979	44,78
746,412	44,56
746,845	44,34
747,278	44,75
747,711	44,63
748,143	44,3
748,576	44,61
749,008	44,44
749,441	44,61
749,873	44,29
750,305	44,41
750,737	44,73
751,169	44,36
751,601	44,57
752,032	44,36
752,464	43,96
752,896	43,97
753,327	44,6
753,758	44,39
754,19	44,18
754,621	44,56
755,052	44,15
755,483	44,41
755,914	43,99
756,344	44,24
756,775	44,44
757,206	43,93
757,636	44
758,066	44,24
758,497	43,96
758,927	43,93
759,357	44,28
759,787	43,89
760,217	43,76
760,647	43,87
761,076	43,59
761,506	43,65
761,935	43,78
762,365	43,97
762,794	43,92
763,223	43,96
763,653	43,44
764,082	43,64
764,51	43,47
764,939	43,63
765,368	43,53
765,797	43,6
766,225	43,65
766,654	43,39
767,082	43,95
767,51	43,23
767,938	43,05
768,367	43,31
768,795	43,33
769,222	43,26
769,65	43,39
770,078	43,26
770,505	43,25
770,933	42,88
771,36	43,31
771,788	42,96
772,215	42,94
772,642	43,25
773,069	42,84
773,496	42,94
773,923	43,1
774,349	42,75
774,776	42,87
775,203	42,83
775,629	43,15
776,055	43,05
776,482	42,94
776,908	42,97
777,334	42,9
777,76	42,9
778,186	42,83
778,611	42,82
779,037	42,79
779,463	42,98
779,888	42,56
780,314	42,66
780,739	42,4
781,164	42,68
781,589	42,39
782,014	42,47
782,439	42,56
782,864	42,66
783,289	42,39
783,713	42,61
784,138	42,51
784,562	42,51
784,987	42,68
785,411	42,65
785,835	42,27
786,259	42,13
786,683	42,29
787,107	42,63
787,531	42,39
787,954	42,18
788,378	42,32
788,802	42,3
789,225	42,26
789,648	42,09
790,071	42,42
790,495	41,96
790,918	42,33
791,34	42,5
791,763	42,12
792,186	42,39
792,609	42,11
793,031	42,09
793,454	42,48
793,876	41,89
794,298	42,04
794,721	42,31
795,143	42,2
795,565	42,27
795,986	42,36
796,408	42,22
796,83	42,14
797,252	42,12
797,673	42,27
798,094	42,06
798,516	42,21
798,937	42,09
799,358	42,09
799,779	42,08
800,2	41,83
800,621	41,96
801,042	41,92
801,462	41,57
801,883	41,79
802,303	42,23
802,724	41,99
803,144	42,02
803,564	41,9
803,984	42,3
804,404	42,1
804,824	42,17
805,244	41,83
805,664	41,83
806,084	41,74
806,503	42
806,923	41,97
807,342	42,13
807,761	41,97
808,18	41,8
808,599	41,93
809,018	42
809,437	42,03
809,856	41,84
810,275	41,84
810,693	41,78
811,112	41,74
811,53	41,96
811,949	41,84
812,367	42,08
812,785	41,84
813,203	41,71
813,621	41,51
814,039	41,73
814,457	41,86
814,874	41,89
815,292	41,9
815,709	41,81
816,127	41,88
816,544	41,8
816,961	41,4
817,378	41,85
817,795	41,83
818,212	41,79
818,629	41,97
819,046	41,95
819,462	41,42
819,879	41,94
820,295	41,69
820,712	41,53
821,128	41,74
821,544	41,67
821,96	41,88
822,376	41,9
822,792	41,78
823,208	41,91
823,624	41,36
824,039	41,51
824,455	41,91
824,87	41,8
825,286	41,65
825,701	41,69
826,116	41,02
826,531	41,52
826,946	41,57
827,361	41,29
827,776	41,38
828,19	41,09
828,605	41,74
829,02	41,55
829,434	41,27
829,848	41,41
830,263	41,63
830,677	41,52
831,091	41,55
831,505	41,47
831,919	41,41
832,332	41,4
832,746	41,35
833,16	41,69
833,573	40,83
833,987	41,32
834,4	41,02
834,813	41,5
835,226	41,64
835,639	41,54
836,052	41,53
836,465	41,68
836,878	41,58
837,29	41,54
837,703	41,62
838,116	41,37
838,528	41,23
838,94	41,22
839,352	41,29
839,765	41,12
840,177	41,14
840,589	41,23
841	41,37
841,412	41,45
841,824	41,45
842,235	41,73
842,647	41,08
843,058	41,37
843,47	41,61
843,881	41,39
844,292	41,52
844,703	41,25
845,114	41,55
845,525	41,17
845,935	41,39
846,346	41,29
846,757	41,47
847,167	41,08
847,577	41,24
847,988	41,02
848,398	40,86
848,808	41,15
849,218	40,91
849,628	41,21
850,038	40,65
850,448	41,33
850,857	40,96
851,267	40,9
851,676	41,39
852,086	41,35
852,495	41,19
852,904	41,54
853,313	41,06
853,722	40,89
854,131	41,03
854,54	41,15
854,949	40,75
855,357	41,12
855,766	41,08
856,174	40,81
856,583	41,25
856,991	41,08
857,399	41,25
857,807	41,04
858,215	41,21
858,623	41,46
859,031	40,85
859,439	41,19
859,846	41,27
860,254	41,07
860,661	40,81
861,069	41,11
861,476	41,07
861,883	40,77
862,29	41,31
862,697	40,7
863,104	41,2
863,511	41,07
863,918	40,69
864,325	40,99
864,731	40,39
865,138	40,66
865,544	40,78
865,95	41,02
866,357	40,83
866,763	41,19
867,169	40,7
867,575	40,86
867,98	40,95
868,386	40,73
868,792	40,79
869,197	40,71
869,603	41,03
870,008	41,36
870,414	40,8
870,819	41,11
871,224	40,86
871,629	40,5
872,034	40,99
872,439	40,88
872,844	40,97
873,248	41,06
873,653	41,08
874,057	40,7
874,462	40,84
874,866	40,69
875,27	40,9
875,674	40,53
876,078	40,79
876,482	40,87
876,886	40,54
877,29	41,22
877,694	41,32
878,097	40,8
878,501	40,86
878,904	41,08
879,308	41,01
879,711	40,68
880,114	40,89
880,517	40,61
880,92	41,1
881,323	40,79
881,726	40,76
882,128	40,86
882,531	40,97
882,934	40,67
883,336	40,85
883,738	41,16
884,141	40,91
884,543	40,85
884,945	41,01
885,347	40,57
885,749	40,56
886,151	40,67
886,552	40,86
886,954	40,68
887,355	40,79
887,757	40,9
888,158	40,67
888,56	41,34
888,961	40,33
889,362	40,72
889,763	40,95
890,164	40,98
890,565	40,68
890,965	40,41
891,366	40,83
891,767	40,75
892,167	40,54
892,567	40,51
892,968	40,71
893,368	40,66
893,768	40,58
894,168	40,71
894,568	40,75
894,968	40,52
895,368	40,66
895,767	40,68
896,167	40,7
896,566	40,45
896,966	40,67
897,365	40,34
897,764	40,52
898,164	40,76
898,563	40,44
898,962	40,66
899,361	40,61
899,759	41,02
900,158	40,76
900,557	40,67
900,955	40,89
901,354	40,94
901,752	40,65
902,15	41,02
902,548	40,36
902,947	41,1
903,345	40,76
903,742	40,82
904,14	40,56
904,538	40,66
904,936	40,42
905,333	40,6
905,731	40,47
906,128	40,57
906,525	40,56
906,923	40,62
907,32	40,51
907,717	40,73
908,114	40,55
908,511	40,74
908,907	40,66
909,304	40,48
909,701	40,3
910,097	40,46
910,494	40,52
910,89	40,22
911,286	40,55
911,682	40,8
912,078	41,27
912,474	40,67
912,87	40,47
913,266	40,58
913,662	40,69
914,058	40,62
914,453	40,82
914,849	40,16
915,244	40,24
915,639	40,74
916,034	40,8
916,43	40,58
916,825	40,72
917,22	40,22
917,614	40,39
918,009	40,58
918,404	40,7
918,798	40,68
919,193	40,42
919,587	40,82
919,982	40,58
920,376	40,32
920,77	40,31
921,164	40,83
921,558	40,19
921,952	40,51
922,346	40,86
922,74	40,14
923,133	40,84
923,527	40,51
923,92	40,12
924,314	40,39
924,707	40,43
925,1	40,47
925,493	40,54
925,886	40,6
926,279	40,34
926,672	40,34
927,065	40,3
927,457	40,62
927,85	40,87
928,243	40,48
928,635	40,7
929,027	40,2
929,42	40,27
929,812	40,25
930,204	40,49
930,596	40,04
930,988	40,28
931,379	40,58
931,771	40,66
932,163	40,58
932,554	40,35
932,946	40,13
933,337	40,95
933,729	39,99
934,12	39,68
934,511	39,76
934,902	40,31
935,293	40,4
935,684	40,93
936,075	40,36
936,465	40,25
936,856	40,5
937,246	40,79
937,637	39,88
938,027	40,93
938,417	40,1
938,808	40,24
939,198	40,74
939,588	40,56
939,978	40,05
940,368	40,48
940,757	39,69
941,147	40,1
941,537	40,94
941,926	40,06
942,315	39,58
942,705	40,11
943,094	40,07
943,483	40,47
943,872	39,74
944,261	39,86
944,65	39,52
945,039	39,48
945,428	40,42
945,816	39,26
946,205	40,38
946,593	40,2
946,982	40,93
947,37	40,51
947,758	40,59
948,146	39,94
948,534	40,59
948,922	40,82
949,31	39,74
949,698	39,64
950,086	39,71
950,473	39,6
950,861	40,24
951,248	40,17
951,636	39,88
952,023	40,14
952,41	39,34
952,797	39,42
953,184	39,42
953,571	39,97
953,958	40,26
954,345	39,22
954,731	40,33
955,118	39,69
955,505	39,59
955,891	39,95
956,277	39,77
956,664	39,59
957,05	39,4
957,436	39,67
957,822	39,04
958,208	39,38
958,594	40,11
958,979	39,44
959,365	39,66
959,751	39,33
960,136	39,86
960,522	40,13
960,907	39,37
961,292	39,83
961,677	39,61
962,062	39,57
962,447	39,96
962,832	39,22
963,217	39,45
963,602	39,54
963,986	39,71
964,371	39,48
964,756	38,91
965,14	39,39
965,524	39,46
965,908	40,09
966,293	39,34
966,677	39,27
967,061	39,83
967,445	39,28
967,828	39,41
968,212	38,37
968,596	39,82
968,979	39,34
969,363	39,59
969,746	39,43
970,129	39,18
970,513	39,95
970,896	39,07
971,279	39,67
971,662	39,93
972,045	39,2
972,428	39,53
972,81	39,76
973,193	40
973,575	39,28
973,958	39,57
974,34	39,71
974,723	39,19
975,105	39,72
975,487	39,71
975,869	39,66
976,251	39,47
976,633	39,31
977,015	39,43
977,396	39
977,778	39,25
978,16	39,5
978,541	38,3
978,922	39,72
979,304	39,4
979,685	39,25
980,066	39,3
980,447	38,97
980,828	40,02
981,209	39,62
981,59	38,72
981,97	39,2
982,351	39,6
982,732	39,9
983,112	39,3
983,493	39,11
983,873	39,85
984,253	39,19
984,633	39,18
985,013	39,58
985,393	39,47
985,773	39,17
986,153	39,96
986,533	39,11
986,912	39,78
987,292	40,24
987,671	39,48
988,051	39,55
988,43	39,55
988,809	39,56
989,188	39,66
989,567	39,15
989,946	39,74
990,325	39,24
990,704	39,76
991,083	38,99
991,461	39,26
991,84	39,34
992,218	39,33
992,597	39,27
992,975	39,01
993,353	39,74
993,732	39,65
994,11	39,07
994,488	39,46
994,866	39,92
995,243	39,67
995,621	39,25
995,999	39,08
996,376	39,3
996,754	39,64
997,131	39,46
997,509	39,88
997,886	39,22
998,263	39,53
998,64	39,67
999,017	38,83
999,394	39,32
999,771	39,45
1000,148	39,42
1000,524	40,43
1000,901	39,67
1001,277	40,09
1001,654	39,42
1002,03	39,69
1002,406	39,71
1002,783	39,86
1003,159	40,36
1003,535	38,86
1003,911	40,02
1004,286	39,02
1004,662	40,07
1005,038	40,81
1005,414	40,58
1005,789	39,58
1006,164	39,57
1006,54	40,03
1006,915	39,48
1007,29	39,93
1007,665	39,77
1008,04	39,87
1008,415	39,49
1008,79	40,29
1009,165	39,3
1009,54	39,99
1009,914	39,75
1010,289	39,33
1010,663	40,26
1011,038	39,54
1011,412	40,08
1011,786	39,49
1012,16	40,08
1012,535	39,56
1012,909	39,51
1013,282	40
1013,656	40,59
1014,03	39,22
1014,404	39,91
1014,777	40,62
1015,151	40,02
1015,524	39,89
1015,897	39,82
1016,271	39,78
1016,644	40,33
1017,017	39,79
1017,39	40,03
1017,763	39,67
1018,136	40,14
1018,508	40,75
1018,881	39,71
1019,254	40,06
1019,626	39,57
1019,999	40,45
1020,371	40,72
1020,743	39,75
1021,116	39,19
1021,488	40,18
1021,86	40,21
1022,232	40,61
1022,604	39,7
1022,975	39,97
1023,347	39,66
1023,719	40,01
1024,09	40,77
1024,462	40,26
1024,833	39,76
1025,204	41,08
1025,576	39,97
1025,947	40,09
1026,318	39,91
1026,689	39,9
1027,06	41,14
1027,431	40,41
1027,801	40,13
1028,172	40,54
1028,543	41,01
1028,913	40,96
1029,284	40,89
1029,654	40,4
1030,024	39,66
1030,394	39,98
1030,764	41,04
1031,135	39,91
1031,504	40,7
1031,874	39,97
1032,244	40,14
1032,614	40,88
1032,983	40,07
1033,353	40,46
1033,722	39,87
1034,092	39,4
1034,461	40,34
1034,83	40,35
1035,2	40,19
1035,569	39,98
1035,938	40,21
1036,307	40,07
1036,675	41,31
1037,044	40,17
1037,413	40,34
1037,781	40,56
1038,15	41,21
1038,518	39,98
1038,887	39,89
1039,255	40,06
1039,623	41,2
1039,991	41,54
1040,359	39,73
1040,727	40,43
1041,095	40,56
1041,463	40,86
1041,831	40,28
1042,198	40,36
1042,566	40,3
1042,933	40,49
1043,301	40,45
1043,668	40,84
1044,035	40,18
1044,402	40,87
1044,77	40,38
1045,137	41,75
1045,503	40,65
1045,87	40,38
1046,237	39,94
1046,604	40,24
1046,97	41,47
1047,337	41,03
1047,703	40,92
1048,07	41,81
1048,436	40,03
1048,802	39,98
1049,168	41,67
1049,534	39,94
1049,9	40,62
1050,266	39,87
1050,632	39,85
1050,998	40,97
1051,364	42,17
1051,729	40,97
1052,095	40,51
1052,46	41,73
1052,825	41,79
1053,191	41,3
1053,556	40,46
1053,921	39,49
1054,286	40,19
1054,651	40,91
1055,016	40,58
1055,381	41,13
1055,745	41,08
1056,11	40,7
1056,475	41
1056,839	41,2
1057,203	41,29
1057,568	41,53
1057,932	40,03
1058,296	42,48
1058,66	41,28
1059,024	41,72
1059,388	41,37
1059,752	42,16
1060,116	41,54
1060,48	42,61
1060,843	40,66
1061,207	41,22
1061,57	40,94
1061,934	42,07
1062,297	40,08
1062,66	42,57
1063,023	42,36
1063,386	42,16
1063,749	40,4
1064,112	40,73
1064,475	41,13
1064,838	42,69
1065,201	41,92
1065,563	43
1065,926	41,48
1066,288	40,61
1066,651	42,36
1067,013	41,88
1067,375	41,64
1067,737	42,05
1068,099	41,52
1068,461	40,22
1068,823	42,82
1069,185	40,16
1069,547	41,66
1069,909	41,92
1070,27	40,69
1070,632	40,85
1070,993	42,4
1071,355	40,42
1071,716	41,36
1072,077	40,89
1072,438	40,63
1072,799	40,62
1073,16	41,21
1073,521	40,48
1073,882	41,75
1074,243	40,54
1074,603	40,65
1074,964	41,25
1075,325	42,58
1075,685	42,2
1076,045	40,36
1076,406	42,27
1076,766	40,17
1077,126	40,87
1077,486	42,26
1077,846	41,48
1078,206	42,58
1078,566	40,64
1078,925	41,37
1079,285	40,34
1079,645	42,27
1080,004	40,82
1080,364	41,6
1080,723	41,09
1081,082	41,68
1081,442	43,09
1081,801	41,75
1082,16	42,7
1082,519	43,29
1082,878	42,96
1083,237	41,49
1083,595	42,05
1083,954	41,52
1084,313	41,54
1084,671	40,2
1085,03	43,18
1085,388	42,92
1085,746	42,1
1086,104	42,4
1086,463	41,73
1086,821	43,05
1087,179	42,34
1087,537	41,64
1087,894	44,39
1088,252	41,88
1088,61	40,22
1088,967	43,54
1089,325	44,12
1089,682	41,63
1090,04	41,73
1090,397	43,31
1090,754	45,88
1091,111	43,16
1091,469	43,19
1091,826	39,87
1092,182	43,12
1092,539	43,1
1092,896	42,42
1093,253	40,42
1093,609	42
1093,966	41,66
1094,322	40,17
1094,679	44
1095,035	43,95
1095,391	43,39
1095,748	45,34
1096,104	41,46
1096,46	43,15
1096,816	45,25
1097,171	42,9
1097,527	43,19
1097,883	44,97
1098,239	44,3
1098,594	43,84
1098,95	43,95
1099,305	42,43
1099,66	43,72
1100,016	43,24
1100,371	44,92
1100,726	44,96
1101,081	44,37
1101,436	45,04
1101,791	45,21
1102,146	43,76
1102,5	46,23
1102,855	43,1
1103,21	45,4
1103,564	46,58
1103,918	41,21
1104,273	44,75
1104,627	42,12
1104,981	44,19
1105,335	45,8
1105,69	45,23
1106,043	44,78
1106,397	46,79
1106,751	43,56
1107,105	44,15
1107,459	44,57
1107,812	48,85
1108,166	45,66
1108,519	42,75
1108,873	46,04
1109,226	47,25
1109,579	48,6
1109,932	49,83
1110,285	48,84
1110,638	43,51
1110,991	44,56
1111,344	44,54
1111,697	42,3
1112,05	43,65
1112,402	47,18
1112,755	40,62
1113,107	42,43
1113,46	42,77
1113,812	45,45
1114,164	48,45
1114,517	49,25
1114,869	101,67
1115,221	111,48
1115,573	109,23
1115,924	85,92
