Data from C_2_Relative__4__00036.txt Node

Date: Tue Jan 30 09:52:08 CET 2024
User: diatiterra
Spectrometer: HDX00911
Trigger mode: 0
Integration Time (sec): 6,000000E-3
Scans to average: 2
Nonlinearity correction enabled: false
Boxcar width: 0
Storing dark spectrum: false
XAxis mode: Wavelengths
Number of Pixels in Spectrum: 2068
>>>>>Begin Spectral Data<<<<<
194,468	123,91
195,025	110,11
195,581	122,54
196,138	114,61
196,694	100
197,251	132,09
197,807	98,3
198,363	110,37
198,919	113,1
199,474	123,42
200,03	101,12
200,586	122,15
201,141	117,5
201,696	121,79
202,251	123,44
202,806	130,22
203,361	117,79
203,916	122,29
204,471	150,43
205,025	138,36
205,58	131,25
206,134	140,37
206,688	129,45
207,242	113,38
207,796	111,98
208,35	114,38
208,904	122,56
209,457	118,02
210,011	107,93
210,564	124,66
211,117	104,22
211,67	132,24
212,223	119,74
212,776	113,45
213,329	113,77
213,881	131,76
214,434	110,98
214,986	102,55
215,538	119,41
216,09	110,18
216,642	118,3
217,194	127,63
217,746	125,32
218,297	115,38
218,849	120
219,4	111,11
219,951	120,83
220,502	103,37
221,053	121,3
221,604	111,18
222,155	122,76
222,705	129,8
223,256	105,71
223,806	100
224,356	123,26
224,906	114,81
225,456	105,49
226,006	116,77
226,556	128,86
227,106	148,53
227,655	120,14
228,204	123,72
228,754	117,06
229,303	128,19
229,852	106,96
230,401	120,13
230,949	144,74
231,498	124,64
232,047	112,14
232,595	110,06
233,143	111,11
233,691	100,51
234,239	109,89
234,787	120,67
235,335	124,82
235,883	117,93
236,43	106,41
236,978	105,66
237,525	112,35
238,072	111,68
238,619	114,5
239,166	117,11
239,713	113,55
240,26	118,79
240,806	127,21
241,353	108,24
241,899	119,75
242,445	116,67
242,991	104,73
243,537	122
244,083	113,82
244,629	114,38
245,174	112,2
245,72	111,17
246,265	104,97
246,81	103,18
247,355	122,81
247,9	109,52
248,445	138,76
248,99	121,9
249,534	110,91
250,079	130,08
250,623	112,9
251,168	111,83
251,712	103,7
252,256	127,48
252,8	124,18
253,343	112,72
253,887	110,87
254,43	107,53
254,974	131,39
255,517	123,53
256,06	130,33
256,603	121,34
257,146	117,45
257,689	119,08
258,232	129,01
258,774	138,52
259,317	131,91
259,859	116,55
260,401	136,89
260,943	117,22
261,485	154,31
262,027	117,88
262,569	110,74
263,11	129,58
263,652	109,66
264,193	117,61
264,734	125,52
265,275	127,89
265,816	123,91
266,357	124,11
266,898	114,65
267,438	109,68
267,979	129,23
268,519	112,33
269,059	139,68
269,6	112,9
270,14	128,78
270,68	120,83
271,219	114,77
271,759	127,34
272,298	110,49
272,838	124,84
273,377	126,53
273,916	119,38
274,455	120,83
274,994	119,12
275,533	114,88
276,072	107,28
276,61	115,29
277,149	135,92
277,687	108,48
278,225	128,93
278,763	149,62
279,301	109,32
279,839	132,26
280,377	128,68
280,914	122,66
281,452	110,49
281,989	119,88
282,526	113,21
283,064	140,97
283,601	113,95
284,137	121,17
284,674	126,62
285,211	140,16
285,747	123,35
286,284	119,75
286,82	122,22
287,356	114,07
287,892	115,89
288,428	123,78
288,964	115,72
289,5	140,6
290,035	159,52
290,571	123,6
291,106	178,57
291,641	145
292,176	137,24
292,711	128,08
293,246	144,53
293,781	118,66
294,315	146,77
294,85	123,65
295,384	138,84
295,918	98,88
296,453	111,39
296,987	152,68
297,52	124,09
298,054	113,42
298,588	130,77
299,121	133,07
299,655	106,21
300,188	131,88
300,721	127,21
301,254	135,92
301,787	156,41
302,32	136,09
302,853	104,65
303,385	111,61
303,918	137,61
304,45	111,56
304,982	126,32
305,514	119,62
306,046	122,54
306,578	126,28
307,11	121,3
307,641	107,1
308,173	106,88
308,704	113,26
309,236	111,04
309,767	124,83
310,298	101,14
310,829	121,33
311,359	110,56
311,89	141,89
312,421	134,04
312,951	119,35
313,481	125,71
314,012	106,06
314,542	144,72
315,072	129,58
315,601	135,71
316,131	122,39
316,661	116,46
317,19	130,47
317,72	122,45
318,249	120,3
318,778	117,16
319,307	131,01
319,836	123,87
320,365	126,53
320,893	115,52
321,422	134,07
321,95	115,95
322,479	141,73
323,007	115,23
323,535	114,75
324,063	123,53
324,591	127,67
325,118	134,13
325,646	145,59
326,173	145,74
326,701	106,67
327,228	109,36
327,755	126,67
328,282	125,87
328,809	136,64
329,336	116,25
329,862	121,91
330,389	119,51
330,915	131,37
331,441	116,13
331,968	145,26
332,494	117,88
333,02	115,7
333,545	121,6
334,071	118,18
334,597	127,92
335,122	139,01
335,648	127,17
336,173	137,58
336,698	130
337,223	135,25
337,748	132,9
338,272	121,74
338,797	124,57
339,322	136,88
339,846	114,2
340,37	128,21
340,894	129,11
341,419	150
341,942	117,65
342,466	121,09
342,99	144,94
343,514	126,78
344,037	127,84
344,56	124,86
345,084	146,88
345,607	134,25
346,13	124,02
346,653	148,34
347,175	141,95
347,698	142,93
348,221	146,25
348,743	136,36
349,265	150,57
349,787	124,24
350,309	149,23
350,831	147,54
351,353	161,59
351,875	160
352,397	143,13
352,918	139,7
353,439	182,61
353,961	149,01
354,482	156,37
355,003	153,55
355,524	154,68
356,044	172,68
356,565	151,66
357,086	151,6
357,606	172,77
358,126	161,27
358,646	154,11
359,167	156,88
359,687	155,11
360,206	172,34
360,726	170,28
361,246	144,94
361,765	181,22
362,285	184,69
362,804	181,86
363,323	169,83
363,842	179,91
364,361	174,46
364,88	171,95
365,398	198,12
365,917	190,05
366,435	157,89
366,954	177,02
367,472	174,21
367,99	161,6
368,508	173,11
369,026	150,34
369,544	167,83
370,061	163,16
370,579	188,06
371,096	170,79
371,613	182,78
372,131	172,7
372,648	167,77
373,165	195,77
373,681	200,38
374,198	163,52
374,715	200,37
375,231	188,22
375,747	184
376,264	181,07
376,78	184,83
377,296	193,05
377,812	182,66
378,327	190
378,843	172,97
379,359	184,79
379,874	165,81
380,389	184,81
380,905	201,99
381,42	186,29
381,935	193,95
382,449	163,92
382,964	185,18
383,479	180,34
383,993	176,85
384,508	189,16
385,022	177,5
385,536	186,12
386,05	173,67
386,564	184,16
387,078	184,91
387,592	166,6
388,105	159,09
388,619	178,32
389,132	174,1
389,645	167,88
390,158	180,83
390,671	181,19
391,184	177,28
391,697	169,01
392,21	153,45
392,722	169,35
393,235	169,33
393,747	167,32
394,259	164,37
394,771	163,15
395,283	180,9
395,795	161,07
396,307	161,46
396,818	169,17
397,33	170,42
397,841	166,18
398,353	159,84
398,864	166,41
399,375	162,01
399,886	156,79
400,397	150,82
400,907	148,97
401,418	152,79
401,928	145,6
402,439	145,62
402,949	146,89
403,459	148,48
403,969	141,68
404,479	136
404,989	142,52
405,498	131,48
406,008	126,57
406,517	127,74
407,027	129,21
407,536	118,97
408,045	123,21
408,554	118,42
409,063	116,53
409,572	103,98
410,08	104,87
410,589	99,28
411,097	99,37
411,606	99,45
412,114	95
412,622	90
413,13	94,76
413,638	94,01
414,145	91,79
414,653	87,75
415,16	84,54
415,668	83,45
416,175	80,07
416,682	78,9
417,189	80,61
417,696	76,18
418,203	75,53
418,71	75,67
419,216	72,29
419,723	75,01
420,229	71,55
420,735	70,21
421,242	70,53
421,748	69,58
422,254	69,42
422,759	71,88
423,265	67,79
423,771	68,42
424,276	67,01
424,781	68,12
425,287	66,96
425,792	65,55
426,297	64,34
426,802	66,16
427,306	66,33
427,811	67,07
428,316	64,95
428,82	62,65
429,324	64,33
429,829	65,22
430,333	65,18
430,837	63,32
431,34	64,45
431,844	64,8
432,348	63,16
432,851	63,84
433,355	63,95
433,858	62,32
434,361	63,76
434,864	61,22
435,367	63,63
435,87	61,24
436,373	63,64
436,876	62,3
437,378	62,86
437,88	62,06
438,383	61,46
438,885	62,32
439,387	63,11
439,889	62,57
440,391	63,06
440,892	61,73
441,394	61,75
441,896	61,4
442,397	61,92
442,898	64,14
443,399	62,44
443,9	62,04
444,401	62,01
444,902	61,29
445,403	62,67
445,903	62,29
446,404	63,35
446,904	62,46
447,405	63,6
447,905	62,45
448,405	62,48
448,905	63,14
449,404	62,83
449,904	62,74
450,404	62,92
450,903	63,11
451,403	61,12
451,902	62,79
452,401	62,36
452,9	63,14
453,399	63,49
453,898	64,33
454,396	63,18
454,895	63,96
455,393	64,15
455,892	64,2
456,39	64,39
456,888	62,89
457,386	64,73
457,884	63,64
458,382	62,6
458,879	63,28
459,377	63
459,874	64,37
460,372	65,45
460,869	64,43
461,366	63,8
461,863	65,44
462,36	63,77
462,857	63,96
463,353	65,95
463,85	64,51
464,346	66,35
464,843	65,13
465,339	65,78
465,835	66,74
466,331	64,55
466,827	63,24
467,323	65,47
467,818	66,81
468,314	65,94
468,809	67,09
469,305	67,58
469,8	66,12
470,295	66,71
470,79	67,7
471,285	68,93
471,78	67,37
472,274	67,5
472,769	69,26
473,263	69,35
473,758	69,38
474,252	68,89
474,746	70,62
475,24	69,34
475,734	70,57
476,228	70,54
476,721	72,23
477,215	71,67
477,708	70,15
478,202	72,84
478,695	71,16
479,188	73,5
479,681	70,76
480,174	73,79
480,667	72,55
481,159	73,95
481,652	74,04
482,144	73,58
482,637	76,47
483,129	73,7
483,621	76,63
484,113	75,74
484,605	75,53
485,097	74,56
485,588	75,33
486,08	76,26
486,571	75,62
487,063	77,12
487,554	77,04
488,045	76,72
488,536	77
489,027	77,62
489,518	77,51
490,008	77,88
490,499	77,03
490,989	79,15
491,48	77,6
491,97	77,98
492,46	76,85
492,95	78,78
493,44	79,47
493,93	79,43
494,419	79,58
494,909	78,62
495,398	77,75
495,888	77,38
496,377	79,1
496,866	80,43
497,355	79,45
497,844	78,77
498,333	78,99
498,821	79,27
499,31	79,84
499,798	79,1
500,287	79,06
500,775	77,92
501,263	79,85
501,751	79,56
502,239	79,84
502,727	79,77
503,215	79,34
503,702	79,35
504,19	79,92
504,677	79,69
505,164	80,7
505,651	80,6
506,139	81,24
506,625	79,74
507,112	79,1
507,599	80,87
508,086	80,39
508,572	80,64
509,058	79,64
509,545	80,48
510,031	81,39
510,517	80,39
511,003	79,82
511,489	80,99
511,974	81,61
512,46	80,55
512,946	79,62
513,431	80,65
513,916	82,25
514,401	81,54
514,887	81,32
515,371	81,66
515,856	80,97
516,341	81,1
516,826	81,05
517,31	81,9
517,795	81,46
518,279	81,79
518,763	81,88
519,247	81,57
519,731	81,97
520,215	81,69
520,699	83,31
521,182	81,57
521,666	82,78
522,149	82,23
522,633	83,22
523,116	81,86
523,599	82,22
524,082	83,04
524,565	82,09
525,048	83,12
525,53	83,2
526,013	83,55
526,495	83,71
526,978	83,13
527,46	82,61
527,942	82,45
528,424	83,03
528,906	83,4
529,388	82,8
529,87	83,46
530,351	83,68
530,833	84,54
531,314	84,2
531,795	84,7
532,277	82,5
532,758	84,6
533,238	84,66
533,719	83,74
534,2	84,65
534,681	84,94
535,161	84,36
535,642	83,06
536,122	83,63
536,602	85,36
537,082	84,28
537,562	84,2
538,042	83,51
538,522	84,01
539,001	84,68
539,481	84,05
539,96	84,46
540,44	84,61
540,919	84,77
541,398	85,37
541,877	84,32
542,356	83,93
542,835	84,09
543,313	83,93
543,792	83,44
544,27	84,33
544,749	85,33
545,227	84,61
545,705	84,57
546,183	84,05
546,661	84,91
547,139	85,19
547,616	84,11
548,094	86,19
548,571	84,97
549,049	85,76
549,526	85,34
550,003	85,28
550,48	83,62
550,957	84,12
551,434	84,56
551,911	85,14
552,387	84,16
552,864	84,39
553,34	84,73
553,817	85,43
554,293	84,67
554,769	85,42
555,245	86,25
555,721	85,23
556,197	85,93
556,672	84,44
557,148	85,7
557,623	86,02
558,099	85,77
558,574	86,6
559,049	87,13
559,524	86,2
559,999	86,78
560,474	87,34
560,948	85,86
561,423	87,68
561,897	87,19
562,372	86,81
562,846	87,13
563,32	88,36
563,794	87,3
564,268	88,2
564,742	88,44
565,216	87,45
565,69	88,34
566,163	88,39
566,636	88,9
567,11	89,89
567,583	88,26
568,056	89,99
568,529	89,83
569,002	90,05
569,475	89,84
569,947	89,95
570,42	91,14
570,892	89,75
571,365	90,59
571,837	92,28
572,309	91,8
572,781	92,19
573,253	91,98
573,725	92,58
574,197	93,19
574,668	93,87
575,14	94,68
575,611	93,79
576,082	95,2
576,554	95,56
577,025	95,71
577,496	95,21
577,967	96,54
578,437	97
578,908	96,26
579,379	96,89
579,849	98,1
580,319	97,39
580,79	97,13
581,26	98,64
581,73	99,09
582,2	98,89
582,669	99,65
583,139	99,23
583,609	99,83
584,078	100,81
584,548	101,04
585,017	100,75
585,486	100,91
585,955	101,27
586,424	102,63
586,893	100,94
587,362	101,56
587,83	101,04
588,299	103,5
588,767	102,99
589,236	102,92
589,704	102,87
590,172	103,38
590,64	103,71
591,108	103,58
591,576	103,63
592,043	104,03
592,511	104,35
592,978	103,73
593,446	103,83
593,913	104,64
594,38	105,24
594,847	103,72
595,314	105,02
595,781	104,72
596,248	104,55
596,715	104,61
597,181	105,05
597,647	105,64
598,114	105,73
598,58	105,46
599,046	105,72
599,512	106,45
599,978	106,08
600,444	105,63
600,91	105,45
601,375	105,98
601,841	105,79
602,306	105,82
602,771	106,94
603,236	106,12
603,702	105,88
604,167	105,89
604,631	107,24
605,096	106,29
605,561	105,76
606,025	106,55
606,49	105,26
606,954	105,6
607,418	105,93
607,882	106,56
608,347	106,15
608,81	106,45
609,274	106,58
609,738	107,07
610,202	106,39
610,665	106,29
611,128	107,44
611,592	107,57
612,055	106,51
612,518	107,54
612,981	107,34
613,444	106,89
613,907	106,43
614,369	106,62
614,832	107,34
615,294	108,1
615,757	106,88
616,219	107,52
616,681	107,17
617,143	106,99
617,605	107,85
618,067	107,18
618,529	106,97
618,99	107,5
619,452	107,79
619,913	107,52
620,375	106,63
620,836	107,27
621,297	107,84
621,758	106,32
622,219	107,25
622,68	108,14
623,14	106,77
623,601	107,77
624,061	107,12
624,522	107,15
624,982	106,59
625,442	107
625,902	107,34
626,362	106,51
626,822	106,7
627,282	107,62
627,742	106,3
628,201	106,74
628,661	105,98
629,12	106,12
629,579	106,02
630,038	106,73
630,497	105,3
630,956	106,09
631,415	106,28
631,874	105,68
632,332	106
632,791	106,6
633,249	105,15
633,708	106,95
634,166	105,61
634,624	105,55
635,082	105,66
635,54	104,57
635,998	105,38
636,455	104,46
636,913	105,71
637,37	104,91
637,828	104,62
638,285	104,2
638,742	104,45
639,199	104,7
639,656	103,71
640,113	105,29
640,57	104,11
641,027	103,99
641,483	103,26
641,94	103,68
642,396	103,27
642,852	104,29
643,309	103,28
643,765	104,23
644,221	103,36
644,676	103,31
645,132	103,4
645,588	102,94
646,043	102,95
646,499	103,4
646,954	102,59
647,409	102,7
647,864	102,46
648,319	102,92
648,774	102,66
649,229	102,81
649,684	101,93
650,139	102,46
650,593	102,36
651,047	101,82
651,502	100,97
651,956	101,87
652,41	102,36
652,864	101,97
653,318	102,45
653,772	101,85
654,225	101,73
654,679	101,36
655,133	100,88
655,586	100,87
656,039	100,5
656,492	102,06
656,946	100,75
657,399	101
657,851	101,41
658,304	101,37
658,757	100,52
659,209	101,04
659,662	101,93
660,114	100,41
660,567	100,62
661,019	100,06
661,471	100,9
661,923	100,92
662,375	100,61
662,826	100,43
663,278	100,52
663,73	100,78
664,181	100,73
664,632	100,64
665,084	100,53
665,535	101,28
665,986	99,87
666,437	101,07
666,888	100,74
667,338	100,56
667,789	101,22
668,24	100,87
668,69	100,12
669,14	100,12
669,591	100,06
670,041	100,42
670,491	100,77
670,941	100,27
671,391	100,18
671,84	99,92
672,29	100,13
672,74	100,01
673,189	99,33
673,638	100,03
674,088	100,15
674,537	100,3
674,986	100,17
675,435	100,88
675,883	100,73
676,332	100,03
676,781	100,12
677,229	101,37
677,678	100,83
678,126	100,6
678,574	100,13
679,022	100,84
679,47	100,4
679,918	100,16
680,366	99,95
680,814	100,98
681,261	100,91
681,709	101
682,156	100,73
682,604	100,38
683,051	101,01
683,498	100,39
683,945	100,89
684,392	101,46
684,839	100,98
685,286	100,67
685,732	101,45
686,179	100,4
686,625	100,96
687,071	100,7
687,518	100
687,964	100,52
688,41	99,74
688,856	100,85
689,301	100,73
689,747	100,39
690,193	100,91
690,638	100,8
691,084	100,89
691,529	100,96
691,974	100,55
692,419	100,11
692,864	100,89
693,309	100,85
693,754	100,49
694,199	100,23
694,643	100,98
695,088	101,02
695,532	100,8
695,977	100,5
696,421	100,16
696,865	101,23
697,309	99,9
697,753	100,65
698,197	100,38
698,64	100,21
699,084	100,52
699,527	100,21
699,971	99,66
700,414	100,02
700,857	99,97
701,3	99,56
701,743	99,85
702,186	99,89
702,629	100,08
703,072	99,79
703,515	98,37
703,957	100,07
704,399	99,6
704,842	99,86
705,284	99,72
705,726	98,82
706,168	99,56
706,61	98,84
707,052	98,88
707,494	99,65
707,935	99,29
708,377	99,44
708,818	98,82
709,26	99,01
709,701	99,26
710,142	98,93
710,583	99,36
711,024	98,93
711,465	98,87
711,905	98,72
712,346	98,52
712,787	98,97
713,227	98,63
713,667	99,12
714,108	98,75
714,548	98,28
714,988	98,99
715,428	98,62
715,868	98,58
716,307	98,4
716,747	97,95
717,186	98,68
717,626	97,89
718,065	97,41
718,504	98,53
718,944	98,77
719,383	98,26
719,822	98,28
720,261	98,15
720,699	98,25
721,138	98,16
721,576	97,19
722,015	97,31
722,453	98,04
722,892	97,54
723,33	97,72
723,768	98,01
724,206	97,68
724,644	98,2
725,081	97,93
725,519	97,67
725,957	98,07
726,394	97,84
726,832	97,53
727,269	97,51
727,706	97,42
728,143	96,53
728,58	97,71
729,017	97,34
729,454	96,99
729,89	97,63
730,327	97
730,764	97,15
731,2	97,4
731,636	96,92
732,072	96,66
732,509	96,65
732,945	97,61
733,38	96,71
733,816	96,76
734,252	96,32
734,688	96,19
735,123	96,72
735,559	95,85
735,994	96,03
736,429	96,33
736,864	96,24
737,299	96,62
737,734	96,87
738,169	96,19
738,604	96,52
739,038	96,09
739,473	95,78
739,907	96,33
740,342	96,1
740,776	95,9
741,21	95,47
741,644	95,42
742,078	95,8
742,512	95,47
742,946	95,55
743,379	95,53
743,813	95,73
744,246	95,64
744,68	95,98
745,113	95,54
745,546	95,16
745,979	95,44
746,412	95
746,845	95,27
747,278	95,4
747,711	94,94
748,143	95,12
748,576	94,72
749,008	94,82
749,441	94,49
749,873	94,5
750,305	94,32
750,737	94,43
751,169	94,37
751,601	94,59
752,032	93,88
752,464	94,07
752,896	94,22
753,327	94,63
753,758	93,89
754,19	93,99
754,621	94,67
755,052	93,76
755,483	94,28
755,914	93,97
756,344	94,29
756,775	93,86
757,206	93,79
757,636	93,95
758,066	93,51
758,497	93,3
758,927	93,42
759,357	93,93
759,787	93,16
760,217	93,39
760,647	93,7
761,076	93,82
761,506	94,01
761,935	93,21
762,365	93,56
762,794	93,24
763,223	93,63
763,653	92,71
764,082	93,24
764,51	92,81
764,939	92,95
765,368	92,74
765,797	93,23
766,225	93,46
766,654	93,15
767,082	93,02
767,51	92,94
767,938	92,58
768,367	92,77
768,795	92,6
769,222	93,1
769,65	92,13
770,078	92,45
770,505	93,09
770,933	93,56
771,36	92,38
771,788	92,44
772,215	92,94
772,642	92,42
773,069	92,08
773,496	92,66
773,923	91,86
774,349	92,36
774,776	93,05
775,203	92,65
775,629	92,03
776,055	92,37
776,482	92,34
776,908	92,12
777,334	92,84
777,76	93,02
778,186	92,34
778,611	92,13
779,037	91,7
779,463	92,37
779,888	91,77
780,314	92,46
780,739	92,73
781,164	92,3
781,589	92,22
782,014	92,32
782,439	92,04
782,864	91,71
783,289	91,99
783,713	92,15
784,138	91,81
784,562	92,2
784,987	92,32
785,411	92,64
785,835	92,51
786,259	91,54
786,683	92,44
787,107	92,2
787,531	92,38
787,954	91,78
788,378	91,85
788,802	91,53
789,225	91,52
789,648	91,44
790,071	92,11
790,495	91,69
790,918	92,2
791,34	92,57
791,763	92,29
792,186	91,8
792,609	91,46
793,031	92,27
793,454	92,52
793,876	92,45
794,298	92,33
794,721	91,23
795,143	92,31
795,565	92,08
795,986	92,51
796,408	92,41
796,83	92,27
797,252	92,47
797,673	92,17
798,094	91,74
798,516	92,6
798,937	91,88
799,358	92,35
799,779	92,02
800,2	92,3
800,621	91,18
801,042	91,9
801,462	91,47
801,883	91,95
802,303	91,92
802,724	91,22
803,144	92,39
803,564	91,13
803,984	91,48
804,404	91,68
804,824	92,09
805,244	91,83
805,664	91,17
806,084	92,16
806,503	91,8
806,923	92,28
807,342	91,45
807,761	92,21
808,18	92,12
808,599	92,16
809,018	92,52
809,437	91,85
809,856	91,97
810,275	91,45
810,693	91,77
811,112	91,97
811,53	91,07
811,949	91,36
812,367	91,9
812,785	91,99
813,203	91,95
813,621	92,01
814,039	92,1
814,457	92,02
814,874	92,04
815,292	91,72
815,709	92,11
816,127	91,78
816,544	91,95
816,961	91,88
817,378	91,52
817,795	93,24
818,212	91,73
818,629	91,86
819,046	92
819,462	92,74
819,879	92,65
820,295	92,34
820,712	91,84
821,128	92,04
821,544	92,48
821,96	91,79
822,376	91,52
822,792	92,26
823,208	91,65
823,624	91,64
824,039	92,13
824,455	91,72
824,87	92,19
825,286	91,44
825,701	91,68
826,116	93,01
826,531	91,96
826,946	92,24
827,361	92,37
827,776	92,23
828,19	92,58
828,605	92,36
829,02	92,64
829,434	92,58
829,848	92,1
830,263	92,5
830,677	91,81
831,091	92,13
831,505	92,06
831,919	92,32
832,332	92,29
832,746	92,46
833,16	91,88
833,573	92,47
833,987	92,39
834,4	91,57
834,813	91,82
835,226	91,87
835,639	92,09
836,052	91,78
836,465	92,03
836,878	92,12
837,29	92,56
837,703	92,56
838,116	92,04
838,528	92,51
838,94	92,36
839,352	92,09
839,765	92,14
840,177	92,39
840,589	92,39
841	91,61
841,412	91,71
841,824	91,82
842,235	92,13
842,647	92,13
843,058	91,78
843,47	92,15
843,881	91,73
844,292	91,22
844,703	92,31
845,114	92,29
845,525	92,09
845,935	92,45
846,346	92,64
846,757	92,71
847,167	92,06
847,577	91,99
847,988	92,84
848,398	92,06
848,808	92,12
849,218	91,74
849,628	91,96
850,038	92,21
850,448	92,33
850,857	92,29
851,267	91,8
851,676	92,06
852,086	92,65
852,495	92,95
852,904	92,5
853,313	92,01
853,722	91,85
854,131	93,12
854,54	91,7
854,949	92,09
855,357	93,06
855,766	93,04
856,174	92,58
856,583	91,71
856,991	92,08
857,399	91,84
857,807	92,27
858,215	92,58
858,623	92,03
859,031	92,35
859,439	92,98
859,846	91,93
860,254	92,59
860,661	92,57
861,069	92,39
861,476	92,32
861,883	91,69
862,29	91,77
862,697	91,75
863,104	91,93
863,511	92,19
863,918	92,29
864,325	92,18
864,731	92,33
865,138	92,39
865,544	92,33
865,95	91,81
866,357	91,75
866,763	92,72
867,169	91,74
867,575	93,49
867,98	92,49
868,386	92,83
868,792	92,7
869,197	92,19
869,603	91,34
870,008	92,13
870,414	91,99
870,819	92,07
871,224	93,59
871,629	92,04
872,034	92,62
872,439	92,04
872,844	92,89
873,248	93,13
873,653	92,38
874,057	92,38
874,462	91,44
874,866	92,9
875,27	93,02
875,674	92,38
876,078	92,63
876,482	92,1
876,886	91,8
877,29	92,61
877,694	92,43
878,097	92,29
878,501	92,4
878,904	92,81
879,308	92,14
879,711	92,84
880,114	92,38
880,517	91,96
880,92	93,23
881,323	92,59
881,726	92,19
882,128	92,88
882,531	93,29
882,934	92,09
883,336	92,39
883,738	93,32
884,141	92,75
884,543	92,96
884,945	93,41
885,347	92,62
885,749	93,1
886,151	93,41
886,552	93,09
886,954	92,75
887,355	92,45
887,757	92,7
888,158	92,99
888,56	92,43
888,961	92,88
889,362	92,27
889,763	93
890,164	92,62
890,565	93,89
890,965	92,45
891,366	91,88
891,767	92,8
892,167	93,17
892,567	93,04
892,968	92,62
893,368	92,7
893,768	92,67
894,168	93,45
894,568	92,89
894,968	92,95
895,368	92,79
895,767	93,2
896,167	92,96
896,566	92,84
896,966	93,01
897,365	92,39
897,764	92,45
898,164	93,2
898,563	93,84
898,962	92,85
899,361	93,38
899,759	92,62
900,158	93,09
900,557	92,91
900,955	93,74
901,354	93,6
901,752	92,82
902,15	93,5
902,548	93,28
902,947	93,75
903,345	93,19
903,742	94,05
904,14	93,3
904,538	93,18
904,936	92,84
905,333	94,14
905,731	93,25
906,128	93,18
906,525	93,22
906,923	93,69
907,32	93,13
907,717	93,27
908,114	93,86
908,511	93,76
908,907	93,13
909,304	93,47
909,701	93,07
910,097	93,12
910,494	93,06
910,89	94,11
911,286	94,3
911,682	93,1
912,078	93,4
912,474	92,75
912,87	94,57
913,266	93,03
913,662	93,52
914,058	92,67
914,453	93,5
914,849	93,15
915,244	94,13
915,639	93,52
916,034	94,85
916,43	95,23
916,825	94,63
917,22	94,16
917,614	93,96
918,009	92,89
918,404	93,61
918,798	93,99
919,193	94,2
919,587	94,32
919,982	93,78
920,376	94,35
920,77	94,27
921,164	94,27
921,558	94,08
921,952	94,22
922,346	93,82
922,74	94,36
923,133	93,08
923,527	93,97
923,92	93,83
924,314	93,2
924,707	93,92
925,1	93,53
925,493	93,03
925,886	94,29
926,279	94,17
926,672	93,41
927,065	94,29
927,457	94
927,85	96,13
928,243	94,95
928,635	93,69
929,027	93,78
929,42	94,05
929,812	94,12
930,204	93,92
930,596	94,06
930,988	93,16
931,379	94,17
931,771	94,51
932,163	95,13
932,554	93,67
932,946	94,9
933,337	93,58
933,729	94,56
934,12	94,42
934,511	94,25
934,902	93,81
935,293	93,08
935,684	94,78
936,075	93,06
936,465	95,24
936,856	94,13
937,246	95,65
937,637	93,98
938,027	94,35
938,417	94,34
938,808	94,68
939,198	93,45
939,588	94,32
939,978	93,57
940,368	92,45
940,757	94,73
941,147	93,64
941,537	93,41
941,926	95,97
942,315	94,37
942,705	94,91
943,094	95,64
943,483	95,05
943,872	95,35
944,261	95,11
944,65	94,65
945,039	95,37
945,428	95,3
945,816	95,18
946,205	96,5
946,593	95,43
946,982	93,99
947,37	93,97
947,758	96,41
948,146	96,46
948,534	95,06
948,922	95,04
949,31	96,1
949,698	94,75
950,086	97
950,473	94,91
950,861	95,27
951,248	96,46
951,636	95,7
952,023	95,78
952,41	96,18
952,797	95,45
953,184	95,73
953,571	96,1
953,958	96,16
954,345	94,88
954,731	96,51
955,118	96,44
955,505	95,36
955,891	96,16
956,277	94,13
956,664	95,55
957,05	95,94
957,436	95,83
957,822	94,83
958,208	96,09
958,594	95,11
958,979	94,77
959,365	96,97
959,751	95,57
960,136	96,13
960,522	97,15
960,907	96,6
961,292	95,27
961,677	95,13
962,062	95,73
962,447	96,78
962,832	95,55
963,217	96,46
963,602	96,08
963,986	94,74
964,371	95,23
964,756	96,39
965,14	95,61
965,524	96,69
965,908	96,72
966,293	95,46
966,677	95,28
967,061	95,41
967,445	96,15
967,828	95,41
968,212	95,09
968,596	95,85
968,979	95,24
969,363	94,98
969,746	96,2
970,129	96,94
970,513	95,14
970,896	95,74
971,279	95,29
971,662	94,92
972,045	95,38
972,428	95,72
972,81	96,81
973,193	95,71
973,575	96,22
973,958	95,37
974,34	96,17
974,723	95,33
975,105	96
975,487	95,65
975,869	96,11
976,251	95,49
976,633	97,18
977,015	96,32
977,396	95,73
977,778	96,81
978,16	96,32
978,541	96,55
978,922	96,84
979,304	95,21
979,685	96,42
980,066	96,15
980,447	96,65
980,828	96,28
981,209	96,97
981,59	96,53
981,97	95,51
982,351	96,4
982,732	96,35
983,112	96,9
983,493	97,66
983,873	94,37
984,253	95,03
984,633	95,6
985,013	95,89
985,393	95,33
985,773	97,77
986,153	96,57
986,533	95,49
986,912	96,77
987,292	96,49
987,671	95,65
988,051	96,49
988,43	96,85
988,809	95,68
989,188	96,28
989,567	96,43
989,946	96,1
990,325	95,71
990,704	97,29
991,083	96,26
991,461	95,88
991,84	95,83
992,218	98,24
992,597	97,51
992,975	96,43
993,353	97,29
993,732	97,67
994,11	96,3
994,488	96,16
994,866	96,81
995,243	97,34
995,621	97,38
995,999	96,16
996,376	97,19
996,754	96,63
997,131	98,08
997,509	97,99
997,886	96,79
998,263	96,15
998,64	96,89
999,017	96,25
999,394	96,4
999,771	97,62
1000,148	97,11
1000,524	96,65
1000,901	97
1001,277	96,22
1001,654	97,27
1002,03	96,07
1002,406	96,79
1002,783	97,27
1003,159	96,32
1003,535	95,82
1003,911	96,95
1004,286	95,94
1004,662	97,38
1005,038	98,17
1005,414	96,86
1005,789	97,27
1006,164	97,71
1006,54	96,92
1006,915	96,17
1007,29	96,49
1007,665	98,22
1008,04	96,21
1008,415	97,9
1008,79	96,1
1009,165	96,73
1009,54	97,86
1009,914	97,93
1010,289	95,28
1010,663	96,92
1011,038	96,87
1011,412	97,23
1011,786	97,54
1012,16	97,1
1012,535	97,06
1012,909	98,04
1013,282	98,03
1013,656	96,51
1014,03	96,66
1014,404	96,23
1014,777	97,73
1015,151	98,41
1015,524	96,06
1015,897	97,47
1016,271	96,93
1016,644	95,77
1017,017	98,33
1017,39	98,56
1017,763	96,03
1018,136	97,72
1018,508	97,84
1018,881	97,54
1019,254	97,63
1019,626	98,28
1019,999	96,06
1020,371	97,68
1020,743	96,94
1021,116	95,83
1021,488	96,25
1021,86	98,19
1022,232	97,39
1022,604	95,95
1022,975	98,04
1023,347	96,9
1023,719	97,47
1024,09	95,84
1024,462	96,3
1024,833	98,17
1025,204	98,59
1025,576	96,92
1025,947	97,25
1026,318	97,4
1026,689	99,09
1027,06	97,59
1027,431	98,75
1027,801	96,97
1028,172	95,7
1028,543	96,8
1028,913	98,25
1029,284	96,65
1029,654	96,5
1030,024	98,12
1030,394	100,08
1030,764	97,8
1031,135	95,38
1031,504	97,99
1031,874	98,07
1032,244	94,72
1032,614	97,2
1032,983	98,36
1033,353	98,06
1033,722	97,08
1034,092	96,7
1034,461	96,47
1034,83	99,91
1035,2	96,08
1035,569	97,36
1035,938	97,78
1036,307	97,33
1036,675	98,16
1037,044	99,39
1037,413	99,63
1037,781	97,34
1038,15	99,05
1038,518	98,47
1038,887	100,51
1039,255	97,21
1039,623	96,41
1039,991	95,1
1040,359	98,45
1040,727	99,77
1041,095	97,36
1041,463	97,78
1041,831	98,08
1042,198	99,52
1042,566	97,41
1042,933	101,05
1043,301	98,51
1043,668	97,78
1044,035	97,37
1044,402	97,96
1044,77	96,4
1045,137	96,39
1045,503	98,97
1045,87	96,35
1046,237	98,04
1046,604	98,77
1046,97	97,42
1047,337	98,5
1047,703	96,92
1048,07	96,3
1048,436	96,81
1048,802	97,88
1049,168	98,18
1049,534	99,77
1049,9	99,27
1050,266	97,07
1050,632	100,09
1050,998	98,49
1051,364	98,03
1051,729	98,16
1052,095	99,46
1052,46	98,08
1052,825	98,94
1053,191	100,1
1053,556	95,91
1053,921	97,38
1054,286	99,32
1054,651	99,97
1055,016	102,18
1055,381	98,7
1055,745	96,2
1056,11	96,84
1056,475	102,92
1056,839	97,29
1057,203	96,75
1057,568	99,04
1057,932	98,77
1058,296	98,51
1058,66	99,03
1059,024	99,77
1059,388	99,38
1059,752	95,12
1060,116	98,29
1060,48	96,05
1060,843	98,7
1061,207	100,8
1061,57	99,66
1061,934	97,38
1062,297	100,06
1062,66	98,3
1063,023	99,64
1063,386	98,79
1063,749	100,7
1064,112	97,7
1064,475	100,03
1064,838	100,46
1065,201	96,17
1065,563	98,25
1065,926	99,89
1066,288	98,52
1066,651	99,05
1067,013	98,52
1067,375	97,98
1067,737	98,26
1068,099	98,1
1068,461	100,85
1068,823	99,96
1069,185	95,51
1069,547	101,26
1069,909	97,44
1070,27	101,66
1070,632	99,92
1070,993	100,2
1071,355	96,56
1071,716	97,38
1072,077	97,22
1072,438	99,87
1072,799	97,92
1073,16	99,15
1073,521	97,63
1073,882	97,36
1074,243	99,87
1074,603	100,96
1074,964	99,17
1075,325	103,73
1075,685	99,67
1076,045	101,05
1076,406	101,15
1076,766	99,56
1077,126	97,45
1077,486	96,72
1077,846	98,35
1078,206	98,88
1078,566	100,35
1078,925	103,78
1079,285	97,77
1079,645	100,1
1080,004	100,63
1080,364	99,68
1080,723	97,69
1081,082	97,21
1081,442	97,65
1081,801	104,9
1082,16	99,89
1082,519	101,67
1082,878	102,27
1083,237	97,5
1083,595	99,49
1083,954	99,65
1084,313	102,23
1084,671	103,32
1085,03	103,32
1085,388	100,42
1085,746	101,21
1086,104	101,4
1086,463	99,94
1086,821	99,02
1087,179	99,81
1087,537	102,51
1087,894	97,41
1088,252	98,52
1088,61	103,27
1088,967	105,13
1089,325	98,57
1089,682	102,58
1090,04	98,14
1090,397	100,69
1090,754	99,32
1091,111	101,27
1091,469	96,3
1091,826	97,17
1092,182	101,87
1092,539	100,51
1092,896	97,83
1093,253	103,98
1093,609	99,18
1093,966	97,79
1094,322	104,63
1094,679	100,94
1095,035	100,08
1095,391	98,63
1095,748	98,48
1096,104	95,78
1096,46	101,24
1096,816	104,44
1097,171	101,54
1097,527	97,47
1097,883	95,72
1098,239	96,74
1098,594	104,39
1098,95	100,18
1099,305	100,99
1099,66	99,46
1100,016	97,93
1100,371	103,27
1100,726	102,17
1101,081	98,04
1101,436	105,7
1101,791	101,18
1102,146	102,92
1102,5	98,29
1102,855	104,38
1103,21	103,65
1103,564	102,93
1103,918	102,09
1104,273	100,64
1104,627	99,9
1104,981	105,57
1105,335	100,21
1105,69	99,02
1106,043	100,65
1106,397	101,15
1106,751	106,13
1107,105	96,18
1107,459	97,56
1107,812	100,7
1108,166	103,92
1108,519	99,63
1108,873	103,14
1109,226	102,51
1109,579	105,74
1109,932	103,02
1110,285	102,14
1110,638	102,08
1110,991	101,81
1111,344	103,23
1111,697	102,04
1112,05	108,74
1112,402	100,44
1112,755	101,97
1113,107	102,12
1113,46	100
1113,812	105,1
1114,164	97,68
1114,517	101,05
1114,869	159,15
1115,221	150,67
1115,573	150
1115,924	114,46
