Data from C_6_0_Relative__5__00068.txt Node

Date: Mon Jan 29 12:55:38 CET 2024
User: diatiterra
Spectrometer: HDX00911
Trigger mode: 0
Integration Time (sec): 6,000000E-3
Scans to average: 4
Nonlinearity correction enabled: false
Boxcar width: 0
Storing dark spectrum: false
XAxis mode: Wavelengths
Number of Pixels in Spectrum: 2068
>>>>>Begin Spectral Data<<<<<
194,468	39,63
195,025	40,7
195,581	30,81
196,138	35,67
196,694	37,2
197,251	38,73
197,807	40,14
198,363	38,88
198,919	39,4
199,474	40,22
200,03	32,89
200,586	40,54
201,141	37,82
201,696	36,77
202,251	34,62
202,806	33,26
203,361	41,98
203,916	37,95
204,471	39,68
205,025	35,7
205,58	40,49
206,134	34,91
206,688	40,35
207,242	33,55
207,796	37,14
208,35	39,41
208,904	46,33
209,457	42,58
210,011	42,07
210,564	37,01
211,117	41,78
211,67	40,04
212,223	37,04
212,776	40,93
213,329	40,61
213,881	37,78
214,434	40,46
214,986	34,92
215,538	41,15
216,09	44,47
216,642	42,4
217,194	39,58
217,746	40,89
218,297	38,41
218,849	40,56
219,4	40,08
219,951	35,56
220,502	42,4
221,053	41,39
221,604	38,75
222,155	37,7
222,705	38,41
223,256	41,21
223,806	37,74
224,356	33,55
224,906	40,25
225,456	41,05
226,006	40,23
226,556	41,54
227,106	43,75
227,655	37,1
228,204	39,16
228,754	37,78
229,303	44,18
229,852	41,47
230,401	38,51
230,949	42,64
231,498	37,33
232,047	40,47
232,595	42,26
233,143	37,67
233,691	39,96
234,239	42,41
234,787	44,09
235,335	42,15
235,883	40,59
236,43	36,16
236,978	45,14
237,525	32,59
238,072	39
238,619	44,39
239,166	43,71
239,713	37,27
240,26	40,87
240,806	50,43
241,353	44,14
241,899	41,63
242,445	41,86
242,991	38,39
243,537	43,56
244,083	45,85
244,629	46,4
245,174	36,46
245,72	41,56
246,265	36,6
246,81	45,6
247,355	40
247,9	43,54
248,445	39,66
248,99	41,68
249,534	38,1
250,079	40
250,623	42,75
251,168	40,49
251,712	40,22
252,256	32,47
252,8	39
253,343	41,71
253,887	39,15
254,43	35,84
254,974	40,94
255,517	40,3
256,06	36,64
256,603	35,45
257,146	34,11
257,689	44,59
258,232	41,27
258,774	37,38
259,317	34,76
259,859	38,04
260,401	41,99
260,943	40,44
261,485	41,78
262,027	34,14
262,569	41,25
263,11	38,89
263,652	36,24
264,193	37,96
264,734	27,75
265,275	36,85
265,816	37,58
266,357	38,1
266,898	29
267,438	36,24
267,979	36,28
268,519	43,11
269,059	35,28
269,6	42,21
270,14	32,21
270,68	40,68
271,219	41,14
271,759	37,3
272,298	32,07
272,838	39,91
273,377	38,07
273,916	36,02
274,455	37,64
274,994	38,55
275,533	42,73
276,072	36,91
276,61	36,56
277,149	38,35
277,687	37,99
278,225	35,97
278,763	36,88
279,301	31,11
279,839	38,49
280,377	33,65
280,914	37,12
281,452	33,26
281,989	35,38
282,526	38,41
283,064	34,68
283,601	34,57
284,137	37,86
284,674	37,38
285,211	38,13
285,747	38,42
286,284	35,84
286,82	40,32
287,356	39,96
287,892	30,39
288,428	33,26
288,964	48,94
289,5	31,46
290,035	43,71
290,571	38,78
291,106	34,9
291,641	38,18
292,176	41,81
292,711	37,5
293,246	35,55
293,781	34,54
294,315	33,42
294,85	31,42
295,384	34,38
295,918	40,22
296,453	36,79
296,987	31,99
297,52	37,06
298,054	38,03
298,588	38,7
299,121	37,69
299,655	38,91
300,188	34,17
300,721	43,95
301,254	38,13
301,787	43,1
302,32	42,63
302,853	32,82
303,385	35,46
303,918	34,08
304,45	34,21
304,982	41,78
305,514	34,72
306,046	35,67
306,578	36,84
307,11	34,97
307,641	35,49
308,173	36,82
308,704	39,06
309,236	36,5
309,767	34,35
310,298	39,47
310,829	36,85
311,359	35,05
311,89	37,7
312,421	33,86
312,951	40,23
313,481	40,78
314,012	32,21
314,542	36,94
315,072	35,93
315,601	37,61
316,131	34,78
316,661	36,23
317,19	40,27
317,72	33,81
318,249	35,89
318,778	33,09
319,307	36
319,836	36,95
320,365	34,56
320,893	40,57
321,422	36,41
321,95	36
322,479	39,05
323,007	35,75
323,535	41,86
324,063	38,3
324,591	34,52
325,118	35,38
325,646	30,9
326,173	36,99
326,701	42,14
327,228	39,55
327,755	37,56
328,282	29,14
328,809	37,53
329,336	31,41
329,862	39,77
330,389	37,93
330,915	31,82
331,441	34,97
331,968	33,98
332,494	39
333,02	34,62
333,545	33,4
334,071	27,9
334,597	36,54
335,122	41,65
335,648	47,16
336,173	32,54
336,698	36,7
337,223	35,57
337,748	36,13
338,272	32,64
338,797	31,02
339,322	37,56
339,846	36,17
340,37	37,47
340,894	27,62
341,419	36,13
341,942	35,29
342,466	35,07
342,99	36,72
343,514	41,09
344,037	38,6
344,56	32,79
345,084	35,23
345,607	31,77
346,13	36,26
346,653	35,42
347,175	32,81
347,698	37,52
348,221	31,84
348,743	37,55
349,265	37,74
349,787	37,37
350,309	33,68
350,831	34,31
351,353	40,45
351,875	33,56
352,397	31,83
352,918	33,45
353,439	36,01
353,961	36,97
354,482	30,47
355,003	36,01
355,524	28,81
356,044	36,31
356,565	37,69
357,086	34,33
357,606	32,79
358,126	36,35
358,646	35,3
359,167	37,23
359,687	30,97
360,206	33,09
360,726	33,91
361,246	36,03
361,765	32,28
362,285	35,2
362,804	34,24
363,323	34,69
363,842	38,58
364,361	32,75
364,88	29,21
365,398	34,87
365,917	30,25
366,435	31,75
366,954	34,04
367,472	32,22
367,99	35,41
368,508	31,52
369,026	38,07
369,544	31,95
370,061	32,32
370,579	34,65
371,096	34,22
371,613	38,34
372,131	35,11
372,648	30,89
373,165	33,52
373,681	37,03
374,198	35,6
374,715	35,07
375,231	36,13
375,747	31,21
376,264	32,34
376,78	33,33
377,296	30,81
377,812	32,11
378,327	30,12
378,843	33,63
379,359	34,63
379,874	30,94
380,389	31,15
380,905	33,91
381,42	30,78
381,935	29,97
382,449	32,28
382,964	28,57
383,479	31,78
383,993	29,04
384,508	28,66
385,022	32,77
385,536	28,94
386,05	26,58
386,564	27,66
387,078	29,29
387,592	26,92
388,105	28,96
388,619	26,57
389,132	28,47
389,645	28,62
390,158	27,09
390,671	28,18
391,184	26,6
391,697	25,05
392,21	26,85
392,722	25,63
393,235	24,8
393,747	24,07
394,259	26,03
394,771	24,99
395,283	24,9
395,795	23,15
396,307	23,89
396,818	24,93
397,33	24,09
397,841	23,69
398,353	22,78
398,864	23,05
399,375	21,61
399,886	22,38
400,397	21,93
400,907	21,66
401,418	20,61
401,928	20,53
402,439	19,68
402,949	20,08
403,459	19,33
403,969	20,81
404,479	19,89
404,989	18,34
405,498	18,52
406,008	17,78
406,517	17,56
407,027	16,56
407,536	15,8
408,045	15,48
408,554	16,44
409,063	14,67
409,572	16,1
410,08	14,38
410,589	14,2
411,097	13,06
411,606	13,68
412,114	12,54
412,622	12,62
413,13	11,69
413,638	12,08
414,145	11,81
414,653	11,89
415,16	11,04
415,668	10,21
416,175	11,05
416,682	10,86
417,189	10,42
417,696	10,27
418,203	9,53
418,71	9,47
419,216	9,7
419,723	9,98
420,229	10,06
420,735	9,22
421,242	9,28
421,748	9,43
422,254	9,01
422,759	8,82
423,265	8,89
423,771	8,43
424,276	9,21
424,781	9,07
425,287	8,82
425,792	8,85
426,297	8,99
426,802	8,65
427,306	8,97
427,811	8,68
428,316	8,89
428,82	8,57
429,324	8,3
429,829	8,65
430,333	8,74
430,837	8,71
431,34	8,5
431,844	8,11
432,348	8,14
432,851	8,25
433,355	8,08
433,858	8,4
434,361	8,24
434,864	7,84
435,367	8,47
435,87	7,99
436,373	8,02
436,876	8,38
437,378	7,83
437,88	7,73
438,383	8,12
438,885	7,89
439,387	7,84
439,889	8,1
440,391	8,15
440,892	8,07
441,394	8,06
441,896	7,8
442,397	7,92
442,898	7,92
443,399	7,87
443,9	8,2
444,401	7,81
444,902	8,06
445,403	7,86
445,903	7,98
446,404	7,89
446,904	8,08
447,405	8,15
447,905	7,93
448,405	8,4
448,905	7,81
449,404	8,05
449,904	8,02
450,404	8
450,903	8,05
451,403	8,42
451,902	8,19
452,401	8,55
452,9	8
453,399	8,45
453,898	8,55
454,396	8,49
454,895	8,36
455,393	8,86
455,892	8,45
456,39	8,54
456,888	8,5
457,386	8,34
457,884	8,43
458,382	8,47
458,879	8,53
459,377	8,65
459,874	8,66
460,372	8,65
460,869	8,36
461,366	8,5
461,863	8,42
462,36	8,39
462,857	8,86
463,353	8,6
463,85	8,37
464,346	8,42
464,843	8,51
465,339	8,51
465,835	8,25
466,331	8,79
466,827	8,64
467,323	8,71
467,818	8,49
468,314	8,35
468,809	8,48
469,305	8,46
469,8	8,52
470,295	8,59
470,79	8,49
471,285	8,52
471,78	8,25
472,274	8,39
472,769	8,45
473,263	8,73
473,758	8,41
474,252	8,62
474,746	8,72
475,24	8,48
475,734	8,59
476,228	8,57
476,721	8,61
477,215	8,55
477,708	8,64
478,202	8,5
478,695	8,57
479,188	8,6
479,681	8,63
480,174	8,56
480,667	8,67
481,159	8,56
481,652	8,59
482,144	8,71
482,637	8,56
483,129	8,9
483,621	8,59
484,113	8,74
484,605	8,84
485,097	8,85
485,588	8,78
486,08	8,62
486,571	8,8
487,063	8,87
487,554	9,06
488,045	8,98
488,536	8,7
489,027	9,17
489,518	8,99
490,008	9,13
490,499	8,86
490,989	9,14
491,48	9,05
491,97	9,21
492,46	9,24
492,95	9,29
493,44	9,43
493,93	9,45
494,419	9,41
494,909	9,43
495,398	9,32
495,888	9,49
496,377	9,83
496,866	9,57
497,355	9,72
497,844	9,7
498,333	10,03
498,821	10,21
499,31	10,07
499,798	10,08
500,287	10,37
500,775	10,42
501,263	10,38
501,751	10,47
502,239	10,78
502,727	10,76
503,215	11,01
503,702	11,06
504,19	11,3
504,677	11,14
505,164	11,28
505,651	11,8
506,139	11,91
506,625	11,83
507,112	12,27
507,599	12,19
508,086	12,51
508,572	12,56
509,058	12,75
509,545	13,12
510,031	13,28
510,517	13,42
511,003	13,88
511,489	13,78
511,974	14,17
512,46	14,71
512,946	14,8
513,431	14,94
513,916	15,34
514,401	15,51
514,887	15,62
515,371	16,1
515,856	16,39
516,341	16,58
516,826	17,03
517,31	17,08
517,795	17,26
518,279	17,49
518,763	17,61
519,247	18,25
519,731	18,3
520,215	18,86
520,699	19,35
521,182	19,61
521,666	19,98
522,149	20,25
522,633	20,48
523,116	20,76
523,599	20,94
524,082	21,26
524,565	21,67
525,048	22,23
525,53	22,32
526,013	22,37
526,495	22,86
526,978	23,18
527,46	23,37
527,942	23,42
528,424	23,43
528,906	24,1
529,388	24,49
529,87	24,29
530,351	24,76
530,833	24,63
531,314	25,09
531,795	25,1
532,277	25,07
532,758	25,33
533,238	25,46
533,719	25,71
534,2	26,05
534,681	25,94
535,161	26,02
535,642	26
536,122	26,44
536,602	26,26
537,082	26,31
537,562	26,35
538,042	26,75
538,522	26,8
539,001	26,67
539,481	26,67
539,96	27,04
540,44	26,84
540,919	26,83
541,398	26,79
541,877	26,87
542,356	27,16
542,835	27,21
543,313	27,01
543,792	27,02
544,27	26,84
544,749	27,15
545,227	27,29
545,705	27,11
546,183	27,24
546,661	27,37
547,139	27,3
547,616	27,83
548,094	27,04
548,571	27,64
549,049	27,59
549,526	27,93
550,003	27,85
550,48	27,94
550,957	27,62
551,434	27,67
551,911	27,66
552,387	27,94
552,864	27,69
553,34	27,86
553,817	27,65
554,293	27,68
554,769	27,63
555,245	27,57
555,721	27,53
556,197	27,91
556,672	27,54
557,148	27,62
557,623	27,58
558,099	27,54
558,574	27,83
559,049	27,54
559,524	27,48
559,999	27,17
560,474	27,42
560,948	27,16
561,423	27,4
561,897	27,03
562,372	27,08
562,846	26,85
563,32	27,03
563,794	26,92
564,268	26,57
564,742	26,48
565,216	26,75
565,69	26,31
566,163	25,88
566,636	25,96
567,11	25,77
567,583	25,71
568,056	25,67
568,529	25,35
569,002	25,38
569,475	25,19
569,947	25,08
570,42	24,57
570,892	24,56
571,365	24,42
571,837	24,28
572,309	24,03
572,781	23,81
573,253	23,59
573,725	23,32
574,197	23,26
574,668	23,09
575,14	22,96
575,611	22,84
576,082	22,59
576,554	22,45
577,025	22,24
577,496	22,05
577,967	21,82
578,437	22,13
578,908	21,82
579,379	21,51
579,849	21,77
580,319	21,52
580,79	21,22
581,26	21,2
581,73	21,09
582,2	21,05
582,669	20,89
583,139	20,66
583,609	20,71
584,078	20,47
584,548	20,44
585,017	20,34
585,486	20,13
585,955	19,95
586,424	19,95
586,893	19,85
587,362	19,82
587,83	19,69
588,299	19,9
588,767	19,5
589,236	19,42
589,704	19,37
590,172	19,38
590,64	19,13
591,108	19,28
591,576	19,12
592,043	19,11
592,511	18,95
592,978	19
593,446	18,88
593,913	18,79
594,38	18,86
594,847	18,67
595,314	18,91
595,781	18,71
596,248	18,67
596,715	18,53
597,181	18,65
597,647	18,5
598,114	18,54
598,58	18,35
599,046	18,55
599,512	18,47
599,978	18,28
600,444	18,28
600,91	18,32
601,375	18,3
601,841	18,05
602,306	18,26
602,771	18,15
603,236	18,07
603,702	18,03
604,167	18,03
604,631	17,94
605,096	17,8
605,561	17,85
606,025	17,67
606,49	17,65
606,954	17,59
607,418	17,46
607,882	17,28
608,347	17,39
608,81	17,02
609,274	17
609,738	17,03
610,202	17,01
610,665	16,95
611,128	16,62
611,592	16,71
612,055	16,44
612,518	16,45
612,981	16,25
613,444	16,15
613,907	16,21
614,369	16,11
614,832	15,95
615,294	16
615,757	15,78
616,219	15,69
616,681	15,64
617,143	15,42
617,605	15,3
618,067	15,46
618,529	15,36
618,99	15,3
619,452	15,18
619,913	15,02
620,375	15,03
620,836	14,84
621,297	14,9
621,758	14,83
622,219	14,9
622,68	14,67
623,14	14,66
623,601	14,7
624,061	14,64
624,522	14,66
624,982	14,59
625,442	14,44
625,902	14,62
626,362	14,46
626,822	14,43
627,282	14,38
627,742	14,41
628,201	14,38
628,661	14,49
629,12	14,35
629,579	14,3
630,038	14,34
630,497	14,17
630,956	14,27
631,415	14,2
631,874	14,18
632,332	14,29
632,791	14,21
633,249	14,08
633,708	14,13
634,166	13,94
634,624	14,13
635,082	13,9
635,54	13,73
635,998	13,68
636,455	13,7
636,913	13,6
637,37	13,59
637,828	13,47
638,285	13,38
638,742	13,17
639,199	13,14
639,656	13,04
640,113	12,88
640,57	12,81
641,027	12,67
641,483	12,73
641,94	12,56
642,396	12,41
642,852	12,49
643,309	12,37
643,765	12,06
644,221	12,04
644,676	11,94
645,132	11,87
645,588	11,72
646,043	11,68
646,499	11,47
646,954	11,3
647,409	11,31
647,864	11,21
648,319	11,15
648,774	11,04
649,229	10,91
649,684	10,76
650,139	10,74
650,593	10,78
651,047	10,73
651,502	10,56
651,956	10,56
652,41	10,5
652,864	10,36
653,318	10,37
653,772	10,29
654,225	10,35
654,679	10,3
655,133	10,15
655,586	10,31
656,039	10,2
656,492	10,07
656,946	10,06
657,399	9,91
657,851	9,88
658,304	9,71
658,757	9,77
659,209	9,74
659,662	9,55
660,114	9,68
660,567	9,48
661,019	9,47
661,471	9,25
661,923	9,33
662,375	9,17
662,826	9,03
663,278	9,07
663,73	9,09
664,181	8,94
664,632	8,87
665,084	8,85
665,535	8,91
665,986	8,86
666,437	8,84
666,888	8,78
667,338	8,79
667,789	8,71
668,24	8,77
668,69	8,74
669,14	8,83
669,591	8,82
670,041	8,76
670,491	8,88
670,941	9,02
671,391	8,91
671,84	8,99
672,29	9,06
672,74	9,11
673,189	9,07
673,638	9,25
674,088	9,32
674,537	9,47
674,986	9,51
675,435	9,58
675,883	9,65
676,332	9,82
676,781	9,85
677,229	9,99
677,678	10,09
678,126	10,22
678,574	10,37
679,022	10,36
679,47	10,56
679,918	10,68
680,366	10,74
680,814	10,91
681,261	11,05
681,709	11,16
682,156	11,24
682,604	11,51
683,051	11,49
683,498	11,62
683,945	11,83
684,392	11,89
684,839	11,87
685,286	12,17
685,732	12,3
686,179	12,42
686,625	12,56
687,071	12,7
687,518	12,87
687,964	13,06
688,41	13,29
688,856	13,39
689,301	13,62
689,747	14,04
690,193	14,21
690,638	14,5
691,084	14,88
691,529	15,09
691,974	15,51
692,419	15,95
692,864	16,47
693,309	16,83
693,754	17,27
694,199	17,63
694,643	18,29
695,088	18,67
695,532	19
695,977	19,7
696,421	20,23
696,865	20,64
697,309	21,23
697,753	21,68
698,197	22,22
698,64	22,83
699,084	23,25
699,527	23,8
699,971	24,13
700,414	24,88
700,857	25,28
701,3	25,74
701,743	26,26
702,186	26,88
702,629	27,11
703,072	27,47
703,515	28,06
703,957	28,54
704,399	28,89
704,842	29,25
705,284	29,77
705,726	30,08
706,168	30,49
706,61	30,87
707,052	31,44
707,494	31,84
707,935	32,21
708,377	32,38
708,818	32,68
709,26	33,34
709,701	33,44
710,142	33,82
710,583	34,31
711,024	34,48
711,465	34,77
711,905	35,3
712,346	35,63
712,787	35,8
713,227	36,14
713,667	36,46
714,108	36,81
714,548	37,21
714,988	37,25
715,428	37,84
715,868	38,07
716,307	38,18
716,747	38,58
717,186	38,66
717,626	39,05
718,065	39,18
718,504	39,56
718,944	39,88
719,383	39,98
719,822	40,28
720,261	40,36
720,699	40,57
721,138	40,83
721,576	41,24
722,015	41,15
722,453	41,49
722,892	41,53
723,33	41,79
723,768	42,11
724,206	42,32
724,644	42,05
725,081	42,59
725,519	42,75
725,957	43,02
726,394	43,07
726,832	42,99
727,269	43,14
727,706	43,5
728,143	43,59
728,58	43,83
729,017	43,72
729,454	44,16
729,89	43,83
730,327	43,97
730,764	44,09
731,2	44,37
731,636	44,43
732,072	44,47
732,509	44,42
732,945	44,53
733,38	44,68
733,816	44,5
734,252	44,62
734,688	44,98
735,123	45,03
735,559	44,87
735,994	45,01
736,429	45,19
736,864	45,19
737,299	45,17
737,734	45,17
738,169	45,29
738,604	45,36
739,038	45,2
739,473	45,29
739,907	45,43
740,342	45,48
740,776	45,23
741,21	45,44
741,644	45,18
742,078	45,24
742,512	45,46
742,946	45,19
743,379	45,27
743,813	45,36
744,246	45,36
744,68	45,27
745,113	45,16
745,546	45,33
745,979	45,26
746,412	45,31
746,845	45,16
747,278	45,08
747,711	45,15
748,143	45,05
748,576	45,12
749,008	45,13
749,441	44,84
749,873	44,87
750,305	44,95
750,737	45,03
751,169	44,88
751,601	44,97
752,032	44,57
752,464	44,9
752,896	44,76
753,327	44,83
753,758	44,58
754,19	44,65
754,621	44,62
755,052	44,65
755,483	44,52
755,914	44,31
756,344	44,42
756,775	44,34
757,206	44,55
757,636	44,39
758,066	44,45
758,497	44,26
758,927	44,22
759,357	44,24
759,787	44,24
760,217	44,13
760,647	44,18
761,076	44,31
761,506	43,96
761,935	44,11
762,365	44,01
762,794	43,99
763,223	43,94
763,653	43,92
764,082	43,67
764,51	43,8
764,939	43,76
765,368	43,56
765,797	43,54
766,225	43,64
766,654	43,66
767,082	43,61
767,51	43,47
767,938	43,57
768,367	43,61
768,795	43,61
769,222	43,41
769,65	43,5
770,078	43,45
770,505	43,37
770,933	43,39
771,36	43,39
771,788	43,59
772,215	43,32
772,642	43,25
773,069	43,24
773,496	43,33
773,923	43,19
774,349	43,26
774,776	43,41
775,203	43,21
775,629	43,01
776,055	43,09
776,482	43,2
776,908	42,98
777,334	42,81
777,76	42,73
778,186	42,97
778,611	43,1
779,037	43,12
779,463	43,06
779,888	42,91
780,314	42,94
780,739	43,01
781,164	42,9
781,589	42,81
782,014	42,76
782,439	42,73
782,864	42,78
783,289	42,69
783,713	42,94
784,138	42,88
784,562	42,77
784,987	42,79
785,411	42,51
785,835	42,77
786,259	42,49
786,683	42,76
787,107	42,83
787,531	42,93
787,954	42,72
788,378	42,74
788,802	42,57
789,225	42,63
789,648	42,48
790,071	42,65
790,495	42,54
790,918	42,7
791,34	42,69
791,763	42,51
792,186	42,54
792,609	42,47
793,031	42,44
793,454	42,69
793,876	42,39
794,298	42,34
794,721	42,4
795,143	42,34
795,565	42,45
795,986	42,62
796,408	42,52
796,83	42,37
797,252	42,63
797,673	42,31
798,094	42,49
798,516	42,28
798,937	42,48
799,358	42,3
799,779	42,33
800,2	42,3
800,621	42,3
801,042	42,21
801,462	42,39
801,883	42,41
802,303	42,29
802,724	42,29
803,144	42,47
803,564	42,09
803,984	42,14
804,404	42,52
804,824	42,11
805,244	42,27
805,664	42,14
806,084	42,23
806,503	42,2
806,923	42,19
807,342	42,37
807,761	42,25
808,18	42,21
808,599	42,11
809,018	42,13
809,437	42,27
809,856	42,2
810,275	42,2
810,693	42,17
811,112	42,19
811,53	42,21
811,949	42,33
812,367	42,39
812,785	42,29
813,203	42,14
813,621	42,24
814,039	41,95
814,457	42,2
814,874	42,03
815,292	42
815,709	42,19
816,127	42,11
816,544	42,24
816,961	42,14
817,378	42,09
817,795	42,08
818,212	42,25
818,629	42,01
819,046	42,01
819,462	42,02
819,879	41,93
820,295	41,84
820,712	41,93
821,128	42,23
821,544	41,92
821,96	42,04
822,376	41,93
822,792	42,01
823,208	42,11
823,624	41,86
824,039	41,98
824,455	41,94
824,87	42,07
825,286	41,86
825,701	41,96
826,116	41,87
826,531	41,86
826,946	41,93
827,361	41,96
827,776	41,76
828,19	41,63
828,605	41,97
829,02	41,81
829,434	42,02
829,848	41,99
830,263	41,83
830,677	42,05
831,091	42,07
831,505	41,98
831,919	41,78
832,332	41,81
832,746	41,79
833,16	41,78
833,573	41,71
833,987	41,78
834,4	41,55
834,813	41,75
835,226	41,81
835,639	41,73
836,052	41,52
836,465	41,83
836,878	41,93
837,29	41,96
837,703	41,91
838,116	41,65
838,528	41,74
838,94	41,71
839,352	41,89
839,765	41,66
840,177	41,51
840,589	41,7
841	41,81
841,412	41,64
841,824	41,65
842,235	41,5
842,647	41,61
843,058	41,6
843,47	41,51
843,881	41,64
844,292	41,65
844,703	41,62
845,114	41,51
845,525	41,59
845,935	41,45
846,346	41,71
846,757	41,66
847,167	41,5
847,577	41,62
847,988	41,52
848,398	41,65
848,808	41,61
849,218	41,76
849,628	41,47
850,038	41,56
850,448	41,7
850,857	41,65
851,267	41,74
851,676	41,6
852,086	41,67
852,495	41,63
852,904	41,67
853,313	41,36
853,722	41,51
854,131	41,69
854,54	41,39
854,949	41,4
855,357	41,49
855,766	41,37
856,174	41,64
856,583	41,62
856,991	41,64
857,399	41,58
857,807	41,33
858,215	41,37
858,623	41,55
859,031	41,29
859,439	41,34
859,846	41,62
860,254	41,38
860,661	41,43
861,069	41,34
861,476	41,31
861,883	41,25
862,29	41,49
862,697	41,21
863,104	41,34
863,511	41,15
863,918	41,28
864,325	41,5
864,731	41,24
865,138	41,24
865,544	41,34
865,95	41,31
866,357	41,38
866,763	41,28
867,169	41,22
867,575	41,29
867,98	41,22
868,386	41,12
868,792	41,31
869,197	41,21
869,603	41,15
870,008	41,17
870,414	41,19
870,819	41,15
871,224	41,21
871,629	41,21
872,034	41,21
872,439	41,1
872,844	41,27
873,248	41,14
873,653	41,35
874,057	41,49
874,462	41,32
874,866	41,35
875,27	41,27
875,674	41,31
876,078	41,27
876,482	41,12
876,886	41,32
877,29	41,46
877,694	41,09
878,097	41,32
878,501	41,53
878,904	41,14
879,308	41,12
879,711	41,21
880,114	41,45
880,517	41,15
880,92	41,37
881,323	41,46
881,726	41,15
882,128	41,09
882,531	40,89
882,934	41,24
883,336	41,11
883,738	41,31
884,141	41,19
884,543	41,13
884,945	40,98
885,347	41,17
885,749	40,83
886,151	40,87
886,552	41,05
886,954	41,25
887,355	41,13
887,757	41,22
888,158	40,85
888,56	41,37
888,961	40,98
889,362	41,12
889,763	41,26
890,164	40,92
890,565	41,14
890,965	41,11
891,366	40,92
891,767	41,09
892,167	40,95
892,567	40,96
892,968	41,09
893,368	41,06
893,768	40,78
894,168	41,06
894,568	41,03
894,968	41,23
895,368	41
895,767	40,96
896,167	41,02
896,566	41,23
896,966	41,06
897,365	41,11
897,764	40,97
898,164	41,1
898,563	41,03
898,962	40,82
899,361	41,11
899,759	40,95
900,158	41,01
900,557	41,02
900,955	41,06
901,354	40,65
901,752	41,07
902,15	40,91
902,548	40,83
902,947	40,9
903,345	40,9
903,742	41,02
904,14	40,99
904,538	40,77
904,936	40,96
905,333	40,85
905,731	40,87
906,128	40,83
906,525	40,95
906,923	40,95
907,32	41,05
907,717	40,96
908,114	40,99
908,511	40,92
908,907	40,89
909,304	41,02
909,701	41,05
910,097	40,8
910,494	40,81
910,89	40,85
911,286	40,66
911,682	40,86
912,078	40,87
912,474	40,88
912,87	40,97
913,266	40,98
913,662	40,55
914,058	41,11
914,453	40,97
914,849	40,81
915,244	40,63
915,639	40,81
916,034	40,85
916,43	40,63
916,825	40,91
917,22	41,08
917,614	40,68
918,009	40,8
918,404	40,98
918,798	40,72
919,193	40,87
919,587	41,01
919,982	40,65
920,376	40,96
920,77	40,99
921,164	40,75
921,558	40,71
921,952	40,81
922,346	40,67
922,74	40,74
923,133	40,63
923,527	40,79
923,92	41,06
924,314	40,55
924,707	40,55
925,1	40,51
925,493	40,47
925,886	40,67
926,279	40,79
926,672	40,97
927,065	40,56
927,457	40,49
927,85	40,71
928,243	40,56
928,635	40,74
929,027	40,43
929,42	40,91
929,812	40,43
930,204	40,52
930,596	40,75
930,988	40,39
931,379	40,49
931,771	40,8
932,163	40,42
932,554	40,66
932,946	40,57
933,337	40,22
933,729	40,61
934,12	40,36
934,511	40,68
934,902	40,25
935,293	40,33
935,684	40,75
936,075	40,73
936,465	40,54
936,856	40,03
937,246	40,7
937,637	40,5
938,027	40,45
938,417	40,03
938,808	40,59
939,198	40,82
939,588	40,13
939,978	40,77
940,368	40,45
940,757	40,84
941,147	40,56
941,537	40,2
941,926	40,67
942,315	40,39
942,705	40,53
943,094	40,59
943,483	40,17
943,872	40,38
944,261	40,26
944,65	40,46
945,039	40,52
945,428	40,15
945,816	40,11
946,205	39,93
946,593	40,38
946,982	40,29
947,37	40,02
947,758	40,44
948,146	40,02
948,534	40,06
948,922	40,68
949,31	40,06
949,698	40,28
950,086	40,5
950,473	40,19
950,861	40,02
951,248	40,55
951,636	40,02
952,023	39,87
952,41	40,2
952,797	40,05
953,184	39,88
953,571	40,18
953,958	39,81
954,345	39,49
954,731	39,69
955,118	39,88
955,505	39,84
955,891	39,97
956,277	39,86
956,664	39,59
957,05	39,48
957,436	39,56
957,822	39,17
958,208	39,88
958,594	39,67
958,979	39,82
959,365	39,58
959,751	39,89
960,136	39,83
960,522	39,58
960,907	39,54
961,292	39,07
961,677	39,64
962,062	39,6
962,447	39,46
962,832	39,43
963,217	39,7
963,602	39,71
963,986	39,42
964,371	39,39
964,756	39,62
965,14	39,7
965,524	39,51
965,908	39,79
966,293	39,31
966,677	39,29
967,061	39,32
967,445	39,44
967,828	39,56
968,212	39,44
968,596	39,55
968,979	39,61
969,363	39,57
969,746	39,47
970,129	39,78
970,513	39,62
970,896	39,13
971,279	39,38
971,662	39,51
972,045	39,24
972,428	39,01
972,81	39,3
973,193	39,59
973,575	39,47
973,958	39,2
974,34	39,14
974,723	39,61
975,105	39,25
975,487	39,29
975,869	39,22
976,251	39,37
976,633	39,39
977,015	39,54
977,396	39,9
977,778	39,45
978,16	39,52
978,541	39,24
978,922	39,32
979,304	39,66
979,685	39,02
980,066	39,33
980,447	39,41
980,828	39,21
981,209	39,7
981,59	39,7
981,97	39,7
982,351	39,7
982,732	39,23
983,112	40,09
983,493	39,51
983,873	39,47
984,253	39,09
984,633	39,79
985,013	39,55
985,393	39,51
985,773	39,04
986,153	39,41
986,533	39,07
986,912	39,35
987,292	39,82
987,671	39,58
988,051	39,98
988,43	39,19
988,809	39,61
989,188	39,77
989,567	39,35
989,946	39,71
990,325	39,75
990,704	39,19
991,083	39,59
991,461	39,39
991,84	39,41
992,218	39,64
992,597	39,77
992,975	39,38
993,353	39,24
993,732	39,82
994,11	39,37
994,488	39,68
994,866	39,27
995,243	39,61
995,621	39,69
995,999	39,42
996,376	39,67
996,754	39,78
997,131	39,45
997,509	39,44
997,886	39,75
998,263	39,7
998,64	39,64
999,017	39,53
999,394	39,59
999,771	40,03
1000,148	39,72
1000,524	39,9
1000,901	39,67
1001,277	39,89
1001,654	39,6
1002,03	39,77
1002,406	39,49
1002,783	39,81
1003,159	39,65
1003,535	39,76
1003,911	39,74
1004,286	39,51
1004,662	39,69
1005,038	39,93
1005,414	39,83
1005,789	39,8
1006,164	40
1006,54	40,06
1006,915	40,04
1007,29	39,77
1007,665	40,42
1008,04	39,73
1008,415	40,19
1008,79	39,6
1009,165	39,33
1009,54	39,58
1009,914	39,94
1010,289	39,65
1010,663	39,64
1011,038	39,71
1011,412	40,02
1011,786	39,76
1012,16	39,62
1012,535	40,18
1012,909	40,16
1013,282	40,25
1013,656	40,07
1014,03	40,04
1014,404	39,8
1014,777	39,44
1015,151	39,67
1015,524	40,02
1015,897	39,97
1016,271	40,03
1016,644	39,64
1017,017	40,48
1017,39	39,4
1017,763	39,86
1018,136	39,91
1018,508	39,54
1018,881	40,37
1019,254	39,85
1019,626	40,15
1019,999	39,82
1020,371	40,01
1020,743	39,91
1021,116	40
1021,488	39,8
1021,86	40
1022,232	40,01
1022,604	39,61
1022,975	40,05
1023,347	39,89
1023,719	39,67
1024,09	39,7
1024,462	40,13
1024,833	39,75
1025,204	39,21
1025,576	40,05
1025,947	39,87
1026,318	39,87
1026,689	40,09
1027,06	39,78
1027,431	39,85
1027,801	39,26
1028,172	39,71
1028,543	39,5
1028,913	39,82
1029,284	39,83
1029,654	39,78
1030,024	40,12
1030,394	40,12
1030,764	39,87
1031,135	40,33
1031,504	39,5
1031,874	40,19
1032,244	40,27
1032,614	39,95
1032,983	40,38
1033,353	39,89
1033,722	39,56
1034,092	39,91
1034,461	39,71
1034,83	40,54
1035,2	40,17
1035,569	39,74
1035,938	39,61
1036,307	39,95
1036,675	39,86
1037,044	40,04
1037,413	40,12
1037,781	39,72
1038,15	40,14
1038,518	40,01
1038,887	39,96
1039,255	39,68
1039,623	40,03
1039,991	40,11
1040,359	40,38
1040,727	40,39
1041,095	39,87
1041,463	40,17
1041,831	39,81
1042,198	40,02
1042,566	40,82
1042,933	39,83
1043,301	40,05
1043,668	39,88
1044,035	40,48
1044,402	40,23
1044,77	39,61
1045,137	39,85
1045,503	40,37
1045,87	39,8
1046,237	39,4
1046,604	40,29
1046,97	40,46
1047,337	40,08
1047,703	40,38
1048,07	39,95
1048,436	40,4
1048,802	39,93
1049,168	40,05
1049,534	40,02
1049,9	39,84
1050,266	40,45
1050,632	39,62
1050,998	39,76
1051,364	39,96
1051,729	40,74
1052,095	41,3
1052,46	39,84
1052,825	39,73
1053,191	40,23
1053,556	40,08
1053,921	39,81
1054,286	39,65
1054,651	40,79
1055,016	40,31
1055,381	40,05
1055,745	40,06
1056,11	39,96
1056,475	40,74
1056,839	40,61
1057,203	40,22
1057,568	40,58
1057,932	39,58
1058,296	39,89
1058,66	39,9
1059,024	40,15
1059,388	39,68
1059,752	40,17
1060,116	40,5
1060,48	40,09
1060,843	40,33
1061,207	39,8
1061,57	40,11
1061,934	40,27
1062,297	40,18
1062,66	40,23
1063,023	39,82
1063,386	40,01
1063,749	39,3
1064,112	40,53
1064,475	39,81
1064,838	40,35
1065,201	39,44
1065,563	39,43
1065,926	39,12
1066,288	40,27
1066,651	39,81
1067,013	40,36
1067,375	39,38
1067,737	40,11
1068,099	40,25
1068,461	40,61
1068,823	40
1069,185	40,66
1069,547	40,52
1069,909	38,78
1070,27	39,73
1070,632	39,19
1070,993	39,56
1071,355	40,67
1071,716	39,95
1072,077	40,2
1072,438	40,32
1072,799	41,53
1073,16	41,13
1073,521	38,92
1073,882	39,75
1074,243	40,34
1074,603	40,93
1074,964	39,36
1075,325	39,27
1075,685	40,62
1076,045	40,49
1076,406	40,23
1076,766	39,34
1077,126	40,13
1077,486	39,6
1077,846	41,29
1078,206	39,51
1078,566	39,83
1078,925	40,4
1079,285	40,84
1079,645	40,04
1080,004	40,2
1080,364	40,43
1080,723	39,03
1081,082	38,79
1081,442	39,57
1081,801	39,54
1082,16	39,86
1082,519	39,79
1082,878	39,18
1083,237	39,85
1083,595	40,11
1083,954	40,15
1084,313	39,9
1084,671	39,93
1085,03	39,08
1085,388	40,37
1085,746	39,61
1086,104	38,76
1086,463	39,86
1086,821	39,37
1087,179	40,51
1087,537	40,8
1087,894	39,59
1088,252	40,43
1088,61	40,49
1088,967	40,04
1089,325	40,4
1089,682	40,29
1090,04	37,93
1090,397	39,64
1090,754	40,77
1091,111	39,7
1091,469	40,84
1091,826	40,39
1092,182	40,72
1092,539	40,29
1092,896	39,28
1093,253	39,34
1093,609	40,85
1093,966	38,61
1094,322	39,91
1094,679	40,85
1095,035	40,3
1095,391	39,15
1095,748	41,38
1096,104	39,85
1096,46	40,1
1096,816	39,73
1097,171	41,91
1097,527	39,4
1097,883	39,96
1098,239	39,26
1098,594	39,93
1098,95	39,07
1099,305	40,58
1099,66	40,84
1100,016	38,98
1100,371	39,47
1100,726	39,98
1101,081	39,4
1101,436	38,85
1101,791	39,87
1102,146	39,96
1102,5	39,72
1102,855	39,3
1103,21	41,48
1103,564	39,27
1103,918	40,93
1104,273	40,33
1104,627	42,63
1104,981	39,23
1105,335	40,48
1105,69	37,81
1106,043	40,85
1106,397	40,36
1106,751	40,25
1107,105	40,74
1107,459	40,56
1107,812	39,63
1108,166	41,02
1108,519	39,37
1108,873	39,16
1109,226	40,4
1109,579	38,42
1109,932	40,07
1110,285	37,15
1110,638	40,08
1110,991	41,25
1111,344	39,11
1111,697	39,22
1112,05	40,73
1112,402	40,29
1112,755	38,92
1113,107	39,52
1113,46	41,54
1113,812	39,38
1114,164	40,16
1114,517	39,9
1114,869	42,7
1115,221	40,1
1115,573	42,78
1115,924	36,62
