Data from C2__Relative__3__12-19-23-822.txt Node

Date: Fri Feb 02 12:19:23 CET 2024
User: diatiterra
Spectrometer: HDX00911
Trigger mode: 0
Integration Time (sec): 6,000000E-3
Scans to average: 2
Nonlinearity correction enabled: false
Boxcar width: 0
Storing dark spectrum: false
XAxis mode: Wavelengths
Number of Pixels in Spectrum: 2068
>>>>>Begin Spectral Data<<<<<
194,468	92,42
195,025	80,99
195,581	88,71
196,138	88,7
196,694	68,35
197,251	77,82
197,807	73,08
198,363	65,92
198,919	70,91
199,474	67,33
200,03	66,12
200,586	65,54
201,141	70,44
201,696	67,81
202,251	69,58
202,806	68,01
203,361	72,86
203,916	76,9
204,471	68,39
205,025	74,22
205,58	65,62
206,134	68,31
206,688	69,55
207,242	71,75
207,796	68,53
208,35	65,66
208,904	65,87
209,457	52,77
210,011	65,16
210,564	63,1
211,117	62,16
211,67	72,87
212,223	69,94
212,776	67,07
213,329	64,71
213,881	71,71
214,434	66,57
214,986	66,25
215,538	69,49
216,09	61,9
216,642	68,85
217,194	63,66
217,746	64,66
218,297	67,2
218,849	59,52
219,4	59,33
219,951	65,26
220,502	59,7
221,053	65,92
221,604	68,11
222,155	67,09
222,705	61,97
223,256	58,75
223,806	69,02
224,356	74,18
224,906	62,14
225,456	71,66
226,006	61,44
226,556	67,59
227,106	61,37
227,655	62,76
228,204	62,75
228,754	65,88
229,303	64,26
229,852	65,94
230,401	68,09
230,949	68,79
231,498	60
232,047	61,15
232,595	66,24
233,143	61,34
233,691	68,35
234,239	63,54
234,787	69,97
235,335	67,94
235,883	65,31
236,43	63,84
236,978	64,22
237,525	62,25
238,072	65,33
238,619	61,04
239,166	69,57
239,713	64,26
240,26	74,25
240,806	75,69
241,353	65,55
241,899	63,75
242,445	75
242,991	62,22
243,537	68,12
244,083	61,37
244,629	73,03
245,174	70,81
245,72	72,47
246,265	62,95
246,81	68,52
247,355	62,9
247,9	59,94
248,445	67,83
248,99	62,24
249,534	65,85
250,079	60,06
250,623	65,9
251,168	63,41
251,712	67,28
252,256	65,42
252,8	62,86
253,343	67,1
253,887	59,87
254,43	64,19
254,974	64,93
255,517	72,18
256,06	59,28
256,603	60,06
257,146	54,23
257,689	64,73
258,232	66,1
258,774	65,02
259,317	60,51
259,859	65,85
260,401	67,94
260,943	64,5
261,485	55,73
262,027	66,98
262,569	66,02
263,11	60,94
263,652	64,2
264,193	67,43
264,734	58,69
265,275	64,76
265,816	59,64
266,357	59,23
266,898	67,33
267,438	68,85
267,979	58,77
268,519	65,1
269,059	56,88
269,6	62,03
270,14	59,73
270,68	62,7
271,219	70,65
271,759	58,9
272,298	71,95
272,838	57,57
273,377	58,66
273,916	59,2
274,455	70,39
274,994	68,34
275,533	66,9
276,072	62,96
276,61	69,09
277,149	61,01
277,687	60,44
278,225	63,17
278,763	68,23
279,301	72,32
279,839	57,81
280,377	61,79
280,914	70,43
281,452	62,7
281,989	68,62
282,526	57,76
283,064	55,77
283,601	64,08
284,137	66,23
284,674	59,52
285,211	69,62
285,747	64,65
286,284	60,82
286,82	69,57
287,356	59,06
287,892	71,37
288,428	66,12
288,964	62,17
289,5	68,12
290,035	61,94
290,571	59,48
291,106	55,73
291,641	61,54
292,176	62,58
292,711	57,88
293,246	63,54
293,781	59,09
294,315	67,14
294,85	67,43
295,384	49,04
295,918	63,82
296,453	61,15
296,987	61,95
297,52	58,9
298,054	70,88
298,588	68,2
299,121	61,49
299,655	62,99
300,188	65,85
300,721	66,34
301,254	55,69
301,787	57,84
302,32	57,43
302,853	68,63
303,385	66,67
303,918	59,12
304,45	60,71
304,982	58,22
305,514	60
306,046	62,5
306,578	59,54
307,11	63,33
307,641	59,53
308,173	54
308,704	59,12
309,236	52,32
309,767	54,61
310,298	58,39
310,829	65,2
311,359	68,33
311,89	56,91
312,421	55,1
312,951	52,92
313,481	58,88
314,012	66,78
314,542	62,66
315,072	66,79
315,601	68,88
316,131	71,38
316,661	64,8
317,19	53,18
317,72	56,19
318,249	62,93
318,778	61,94
319,307	59,93
319,836	56,51
320,365	62,08
320,893	65,54
321,422	67
321,95	60,78
322,479	65,32
323,007	60,53
323,535	69,42
324,063	57,53
324,591	55,25
325,118	65,12
325,646	65,38
326,173	58,2
326,701	60,67
327,228	59,67
327,755	55,56
328,282	60,6
328,809	54,58
329,336	61,54
329,862	56,23
330,389	63,67
330,915	63,43
331,441	59,11
331,968	56,63
332,494	57,45
333,02	55,32
333,545	57,66
334,071	59,5
334,597	60,07
335,122	53,85
335,648	56,27
336,173	57,28
336,698	56,69
337,223	52,37
337,748	57,4
338,272	51,83
338,797	53,94
339,322	55,44
339,846	51,38
340,37	52,52
340,894	50,63
341,419	53,17
341,942	50,16
342,466	48,94
342,99	52,91
343,514	62,61
344,037	55,03
344,56	55,46
345,084	51,45
345,607	51,5
346,13	46,52
346,653	51,52
347,175	47,58
347,698	49,06
348,221	50,39
348,743	43,04
349,265	45,62
349,787	46,97
350,309	45,68
350,831	44,77
351,353	49,62
351,875	46,58
352,397	43,51
352,918	41,07
353,439	42,34
353,961	42
354,482	45,7
355,003	47,72
355,524	43,09
356,044	39,23
356,565	41,79
357,086	44,02
357,606	39,95
358,126	41,23
358,646	41,45
359,167	40,97
359,687	38,61
360,206	40,55
360,726	44,2
361,246	37,29
361,765	39,67
362,285	37,76
362,804	38,74
363,323	42,83
363,842	41,39
364,361	40,12
364,88	34,64
365,398	41,82
365,917	40,7
366,435	36,24
366,954	36,4
367,472	36,36
367,99	37,66
368,508	37,86
369,026	36,5
369,544	37,46
370,061	33,7
370,579	37,01
371,096	34,66
371,613	31,38
372,131	34,38
372,648	34,69
373,165	37,52
373,681	37,89
374,198	39,77
374,715	35,14
375,231	33,88
375,747	34,02
376,264	32,47
376,78	32,11
377,296	33,97
377,812	33,56
378,327	33,9
378,843	34,22
379,359	35,41
379,874	33,56
380,389	33,25
380,905	30,26
381,42	32,58
381,935	28,24
382,449	34,65
382,964	29,2
383,479	29,68
383,993	29,28
384,508	26,97
385,022	30,3
385,536	29,3
386,05	29,88
386,564	25,28
387,078	25
387,592	29,77
388,105	26,28
388,619	25,29
389,132	27,14
389,645	25,52
390,158	26,24
390,671	24,88
391,184	26,74
391,697	25,28
392,21	24,51
392,722	23,37
393,235	24,51
393,747	24,61
394,259	25,08
394,771	21,5
395,283	26,24
395,795	23,43
396,307	23,1
396,818	22,39
397,33	21,4
397,841	21,72
398,353	23,39
398,864	21,54
399,375	19,8
399,886	19,8
400,397	20,38
400,907	19,89
401,418	18,45
401,928	18,27
402,439	17,09
402,949	18,54
403,459	18,22
403,969	17,03
404,479	18,35
404,989	17,14
405,498	16,6
406,008	15,28
406,517	15,45
407,027	14,74
407,536	13,81
408,045	13,53
408,554	13,53
409,063	12,61
409,572	12,9
410,08	12,63
410,589	11,94
411,097	11,03
411,606	11,28
412,114	10,51
412,622	10,83
413,13	10,1
413,638	9,43
414,145	9,99
414,653	9,35
415,16	8,86
415,668	9,24
416,175	8,1
416,682	8,49
417,189	8,08
417,696	7,67
418,203	7,8
418,71	7,69
419,216	7,55
419,723	7,93
420,229	7,07
420,735	7,42
421,242	7,56
421,748	7,12
422,254	6,92
422,759	7,13
423,265	6,98
423,771	6,79
424,276	6,23
424,781	6,86
425,287	6,61
425,792	6,34
426,297	6,54
426,802	5,91
427,306	6,43
427,811	6,06
428,316	6,47
428,82	6
429,324	6,42
429,829	5,97
430,333	6,14
430,837	6,14
431,34	6,12
431,844	5,92
432,348	6,03
432,851	5,95
433,355	5,5
433,858	6
434,361	5,48
434,864	5,86
435,367	5,71
435,87	5,65
436,373	5,74
436,876	5,7
437,378	5,35
437,88	5,61
438,383	5,47
438,885	5,5
439,387	5,28
439,889	5,51
440,391	5,67
440,892	5,46
441,394	5,12
441,896	5,27
442,397	5,39
442,898	5,42
443,399	5,25
443,9	5,28
444,401	5,32
444,902	5,47
445,403	5,59
445,903	5,41
446,404	5,49
446,904	5,65
447,405	5,36
447,905	5,82
448,405	5,74
448,905	5,63
449,404	5,47
449,904	5,64
450,404	5,46
450,903	5,78
451,403	5,84
451,902	5,81
452,401	5,91
452,9	5,8
453,399	6,12
453,898	5,82
454,396	5,59
454,895	5,8
455,393	5,95
455,892	6,01
456,39	5,94
456,888	5,99
457,386	6,3
457,884	6,29
458,382	6,12
458,879	5,7
459,377	6,07
459,874	6,07
460,372	6,23
460,869	5,86
461,366	6,26
461,863	5,96
462,36	6,15
462,857	6,08
463,353	6,26
463,85	5,98
464,346	6,04
464,843	5,77
465,339	5,93
465,835	6,06
466,331	6,12
466,827	6,2
467,323	5,91
467,818	6,06
468,314	5,84
468,809	5,84
469,305	5,93
469,8	6,33
470,295	5,88
470,79	6,05
471,285	5,88
471,78	5,93
472,274	5,77
472,769	6
473,263	6,07
473,758	5,99
474,252	5,93
474,746	6,01
475,24	6
475,734	5,98
476,228	5,87
476,721	5,93
477,215	5,95
477,708	5,9
478,202	6,06
478,695	6,07
479,188	6,05
479,681	6,09
480,174	5,97
480,667	5,8
481,159	6,26
481,652	5,94
482,144	6,19
482,637	6,23
483,129	6,06
483,621	6,09
484,113	6,18
484,605	6,21
485,097	6,39
485,588	6,18
486,08	6,33
486,571	6,48
487,063	6,47
487,554	6,35
488,045	6,48
488,536	6,38
489,027	6,35
489,518	6,56
490,008	6,47
490,499	6,61
490,989	6,75
491,48	6,9
491,97	6,95
492,46	6,81
492,95	6,66
493,44	6,99
493,93	6,95
494,419	7,15
494,909	7,41
495,398	7,11
495,888	7,2
496,377	7,4
496,866	7,42
497,355	7,5
497,844	7,47
498,333	7,86
498,821	7,64
499,31	8,18
499,798	8,18
500,287	8,46
500,775	8,42
501,263	8,54
501,751	8,79
502,239	8,98
502,727	8,97
503,215	9,31
503,702	9,35
504,19	9,19
504,677	9,77
505,164	9,91
505,651	10,34
506,139	10,11
506,625	10,32
507,112	10,52
507,599	10,86
508,086	11,04
508,572	11,04
509,058	11,51
509,545	11,71
510,031	11,77
510,517	12,33
511,003	12,53
511,489	12,59
511,974	13,15
512,46	13,27
512,946	13,53
513,431	13,87
513,916	14,48
514,401	14,49
514,887	14,75
515,371	15,09
515,856	15,59
516,341	15,82
516,826	16,07
517,31	16,88
517,795	16,84
518,279	17,01
518,763	17,93
519,247	18,17
519,731	18,3
520,215	18,92
520,699	18,89
521,182	19,46
521,666	19,91
522,149	20,38
522,633	21,13
523,116	21
523,599	21,54
524,082	22,18
524,565	21,95
525,048	22,79
525,53	23,05
526,013	23,19
526,495	23,68
526,978	23,84
527,46	24,08
527,942	23,94
528,424	24,94
528,906	25,36
529,388	25,5
529,87	25,46
530,351	25,64
530,833	25,91
531,314	26,19
531,795	26,66
532,277	26,58
532,758	26,82
533,238	27,08
533,719	27,28
534,2	27,38
534,681	27,59
535,161	27,94
535,642	27,77
536,122	28,12
536,602	27,99
537,082	28,04
537,562	28,34
538,042	28,75
538,522	28,1
539,001	28,59
539,481	28,8
539,96	28,46
540,44	28,99
540,919	28,98
541,398	28,86
541,877	29,18
542,356	29,31
542,835	29,15
543,313	28,85
543,792	29,1
544,27	29,36
544,749	29,28
545,227	29,18
545,705	29,3
546,183	29,35
546,661	29,36
547,139	29,78
547,616	30,04
548,094	29,8
548,571	29,49
549,049	29,83
549,526	30,09
550,003	30,12
550,48	29,96
550,957	30,27
551,434	30,04
551,911	29,73
552,387	30,06
552,864	30,14
553,34	30,18
553,817	30,51
554,293	30,22
554,769	30,14
555,245	30,22
555,721	29,85
556,197	30,13
556,672	29,94
557,148	30,26
557,623	29,96
558,099	29,74
558,574	29,52
559,049	29,61
559,524	29,77
559,999	29,29
560,474	29,63
560,948	29,25
561,423	29,52
561,897	29,2
562,372	29,46
562,846	28,79
563,32	28,85
563,794	28,93
564,268	28,75
564,742	28,64
565,216	28,22
565,69	28,26
566,163	28,13
566,636	27,77
567,11	27,56
567,583	27
568,056	27,32
568,529	26,93
569,002	26,84
569,475	26,98
569,947	26,3
570,42	26,3
570,892	25,99
571,365	25,95
571,837	25,51
572,309	25,63
572,781	25,34
573,253	25,34
573,725	24,95
574,197	24,57
574,668	24,51
575,14	24,12
575,611	23,84
576,082	23,73
576,554	23,63
577,025	23,47
577,496	23,33
577,967	23,27
578,437	23,13
578,908	23,04
579,379	22,66
579,849	22,62
580,319	22,59
580,79	22,05
581,26	22,13
581,73	21,93
582,2	21,95
582,669	21,75
583,139	21,7
583,609	21,42
584,078	21,26
584,548	21,23
585,017	21,26
585,486	21,03
585,955	20,73
586,424	20,53
586,893	20,86
587,362	20,49
587,83	20,22
588,299	20,31
588,767	20,1
589,236	19,85
589,704	19,97
590,172	20,06
590,64	19,8
591,108	19,85
591,576	19,76
592,043	19,49
592,511	19,48
592,978	19,69
593,446	19,15
593,913	19,19
594,38	19,34
594,847	19,24
595,314	19,03
595,781	19,12
596,248	18,8
596,715	18,81
597,181	18,98
597,647	18,94
598,114	18,78
598,58	18,85
599,046	18,73
599,512	18,78
599,978	18,72
600,444	18,61
600,91	18,8
601,375	18,46
601,841	18,33
602,306	18,49
602,771	18,1
603,236	18,43
603,702	18,16
604,167	18,35
604,631	18,07
605,096	17,94
605,561	17,88
606,025	17,92
606,49	17,68
606,954	17,87
607,418	17,65
607,882	17,56
608,347	17,52
608,81	17,4
609,274	17,36
609,738	17,45
610,202	17,21
610,665	17
611,128	16,96
611,592	16,98
612,055	16,71
612,518	16,51
612,981	16,53
613,444	16,38
613,907	16,13
614,369	16,28
614,832	16,07
615,294	15,9
615,757	15,98
616,219	15,81
616,681	15,61
617,143	15,79
617,605	15,64
618,067	15,33
618,529	15,48
618,99	15,25
619,452	15,3
619,913	15,12
620,375	15,13
620,836	14,86
621,297	14,87
621,758	14,88
622,219	14,81
622,68	14,71
623,14	14,62
623,601	14,79
624,061	14,47
624,522	14,65
624,982	14,38
625,442	14,42
625,902	14,42
626,362	14,52
626,822	14,38
627,282	14,35
627,742	14,55
628,201	14,38
628,661	14,31
629,12	14,21
629,579	14,27
630,038	14,25
630,497	14,31
630,956	14,26
631,415	14,21
631,874	13,97
632,332	14,06
632,791	14,03
633,249	13,93
633,708	14,09
634,166	13,96
634,624	13,74
635,082	13,75
635,54	13,6
635,998	13,6
636,455	13,37
636,913	13,31
637,37	13,22
637,828	13,22
638,285	13,03
638,742	12,65
639,199	12,63
639,656	12,58
640,113	12,53
640,57	12,12
641,027	12,08
641,483	11,79
641,94	11,83
642,396	11,73
642,852	11,54
643,309	11,31
643,765	11,26
644,221	11,18
644,676	10,84
645,132	10,69
645,588	10,67
646,043	10,5
646,499	10,38
646,954	10,13
647,409	10,08
647,864	10,01
648,319	9,81
648,774	9,83
649,229	9,84
649,684	9,62
650,139	9,45
650,593	9,35
651,047	9,32
651,502	9,4
651,956	9,25
652,41	9,3
652,864	9
653,318	9,17
653,772	9,18
654,225	8,94
654,679	8,99
655,133	8,89
655,586	8,84
656,039	8,8
656,492	8,77
656,946	8,65
657,399	8,68
657,851	8,59
658,304	8,42
658,757	8,4
659,209	8,41
659,662	8,16
660,114	8,14
660,567	7,95
661,019	7,89
661,471	7,84
661,923	7,64
662,375	7,58
662,826	7,52
663,278	7,46
663,73	7,42
664,181	7,26
664,632	7,2
665,084	7,19
665,535	7,05
665,986	7,02
666,437	6,93
666,888	6,91
667,338	6,86
667,789	6,8
668,24	6,74
668,69	6,7
669,14	6,72
669,591	6,66
670,041	6,74
670,491	6,65
670,941	6,65
671,391	6,62
671,84	6,71
672,29	6,74
672,74	6,79
673,189	6,68
673,638	6,88
674,088	6,93
674,537	6,94
674,986	6,91
675,435	6,87
675,883	7,04
676,332	7,13
676,781	7,26
677,229	7,23
677,678	7,34
678,126	7,34
678,574	7,52
679,022	7,56
679,47	7,66
679,918	7,73
680,366	7,9
680,814	8,03
681,261	8,09
681,709	8,28
682,156	8,37
682,604	8,51
683,051	8,65
683,498	8,87
683,945	8,91
684,392	9,14
684,839	9,31
685,286	9,46
685,732	9,72
686,179	9,89
686,625	10,09
687,071	10,28
687,518	10,63
687,964	10,97
688,41	11,17
688,856	11,58
689,301	11,92
689,747	12,36
690,193	12,57
690,638	13,18
691,084	13,5
691,529	14,16
691,974	14,52
692,419	15,24
692,864	15,61
693,309	16,21
693,754	16,91
694,199	17,37
694,643	18,26
695,088	18,87
695,532	19,39
695,977	20,08
696,421	20,72
696,865	21,72
697,309	22,17
697,753	23,02
698,197	23,67
698,64	24,63
699,084	25,23
699,527	26,07
699,971	26,59
700,414	27,5
700,857	28,14
701,3	28,72
701,743	29,47
702,186	30,3
702,629	31,02
703,072	31,92
703,515	32,52
703,957	32,96
704,399	33,97
704,842	34,48
705,284	35,08
705,726	35,52
706,168	36,33
706,61	36,99
707,052	37,74
707,494	38,41
707,935	38,82
708,377	39,38
708,818	40,27
709,26	40,79
709,701	41,17
710,142	41,91
710,583	42,38
711,024	43,29
711,465	43,43
711,905	44,12
712,346	44,86
712,787	45,44
713,227	46,01
713,667	46,21
714,108	47,01
714,548	47,21
714,988	48,18
715,428	48,49
715,868	49,4
716,307	49,74
716,747	50,18
717,186	50,76
717,626	51,2
718,065	51,32
718,504	52,22
718,944	52,74
719,383	53,2
719,822	53,6
720,261	53,86
720,699	54,46
721,138	54,63
721,576	55,26
722,015	55,89
722,453	56,1
722,892	56,43
723,33	56,76
723,768	57,12
724,206	57,6
724,644	58,08
725,081	58,32
725,519	58,58
725,957	58,72
726,394	58,93
726,832	59,55
727,269	60,16
727,706	60,1
728,143	60,53
728,58	60,66
729,017	61,17
729,454	61,32
729,89	61,82
730,327	61,82
730,764	62,15
731,2	62,45
731,636	62,43
732,072	63,07
732,509	62,65
732,945	63,03
733,38	63,09
733,816	63,43
734,252	63,65
734,688	63,8
735,123	64,11
735,559	64,35
735,994	64,11
736,429	64,49
736,864	64,7
737,299	64,95
737,734	64,84
738,169	64,93
738,604	65,11
739,038	65,05
739,473	65,19
739,907	65,57
740,342	65,13
740,776	65,77
741,21	65,97
741,644	66,14
742,078	65,94
742,512	65,76
742,946	65,86
743,379	65,76
743,813	66,1
744,246	65,84
744,68	66,1
745,113	66,47
745,546	66,36
745,979	66,12
746,412	66,2
746,845	66,29
747,278	66,28
747,711	66,11
748,143	66,37
748,576	66,53
749,008	66,33
749,441	66,2
749,873	66,22
750,305	66,23
750,737	66,46
751,169	66,03
751,601	66,42
752,032	65,91
752,464	65,96
752,896	66,22
753,327	66,47
753,758	66,14
754,19	66,76
754,621	66,23
755,052	66,04
755,483	66,37
755,914	66,13
756,344	66,1
756,775	66,3
757,206	66
757,636	65,83
758,066	65,77
758,497	66,16
758,927	66,25
759,357	66,08
759,787	66,18
760,217	66,08
760,647	65,72
761,076	65,92
761,506	65,87
761,935	65,84
762,365	65,65
762,794	65,62
763,223	65,74
763,653	66,36
764,082	65,81
764,51	65,82
764,939	65,86
765,368	65,51
765,797	65,53
766,225	65,6
766,654	65,82
767,082	65,7
767,51	65,55
767,938	65,78
768,367	65,5
768,795	65,3
769,222	65,44
769,65	65,09
770,078	65,24
770,505	65,9
770,933	65,3
771,36	65,52
771,788	65,54
772,215	65,19
772,642	65,41
773,069	65,19
773,496	65,17
773,923	65,63
774,349	65,63
774,776	65,35
775,203	64,91
775,629	65,18
776,055	65,1
776,482	65,33
776,908	65,03
777,334	65,25
777,76	65,12
778,186	65,21
778,611	64,97
779,037	64,83
779,463	64,66
779,888	64,83
780,314	64,83
780,739	64,79
781,164	64,91
781,589	64,92
782,014	64,76
782,439	65,13
782,864	64,63
783,289	64,72
783,713	64,93
784,138	64,7
784,562	64,97
784,987	64,54
785,411	64,98
785,835	64,85
786,259	65
786,683	64,99
787,107	64,8
787,531	64,82
787,954	64,71
788,378	65,03
788,802	64,83
789,225	64,81
789,648	64,88
790,071	64,66
790,495	64,67
790,918	65,13
791,34	65
791,763	64,62
792,186	64,52
792,609	65,15
793,031	64,61
793,454	64,46
793,876	64,91
794,298	64,73
794,721	64,7
795,143	64,97
795,565	64,63
795,986	64,59
796,408	64,43
796,83	64,68
797,252	64,88
797,673	64,6
798,094	64,63
798,516	64,74
798,937	64,48
799,358	64,59
799,779	64,47
800,2	64,89
800,621	64,84
801,042	64,65
801,462	64,53
801,883	64,74
802,303	64,73
802,724	64,64
803,144	64,57
803,564	64,78
803,984	64,49
804,404	64,66
804,824	64,58
805,244	64,76
805,664	64,55
806,084	64,56
806,503	64,55
806,923	64,28
807,342	64,29
807,761	64,67
808,18	64,69
808,599	64,4
809,018	64,82
809,437	64,64
809,856	64,56
810,275	64,74
810,693	64,53
811,112	64,78
811,53	64,45
811,949	64,43
812,367	64,28
812,785	64,63
813,203	64,49
813,621	64,2
814,039	64,46
814,457	64,6
814,874	64,49
815,292	64,74
815,709	64,46
816,127	64,4
816,544	64,15
816,961	64,38
817,378	64,36
817,795	64,47
818,212	64,44
818,629	64,34
819,046	64,53
819,462	64,63
819,879	64,43
820,295	64,47
820,712	64,23
821,128	64,56
821,544	64,3
821,96	64,5
822,376	64,41
822,792	64,17
823,208	64,37
823,624	64,2
824,039	64,29
824,455	64,38
824,87	64,52
825,286	64,56
825,701	64,04
826,116	64,68
826,531	63,92
826,946	64,35
827,361	64,25
827,776	64,55
828,19	64,71
828,605	64,5
829,02	64,11
829,434	64,34
829,848	64,06
830,263	64,11
830,677	64,58
831,091	64,33
831,505	64,24
831,919	64,54
832,332	64,21
832,746	64,3
833,16	64,27
833,573	64,42
833,987	64,47
834,4	63,77
834,813	64,28
835,226	64,12
835,639	64,31
836,052	63,99
836,465	64,33
836,878	64,37
837,29	64,22
837,703	64,51
838,116	64,21
838,528	64,25
838,94	64,43
839,352	64
839,765	64,47
840,177	63,73
840,589	63,73
841	64,31
841,412	64,09
841,824	64,44
842,235	64,22
842,647	64,03
843,058	64,21
843,47	63,96
843,881	64,21
844,292	64,49
844,703	63,91
845,114	64,22
845,525	63,76
845,935	64,1
846,346	64,09
846,757	64,11
847,167	64,37
847,577	64,45
847,988	64,02
848,398	63,91
848,808	64,32
849,218	64,12
849,628	63,71
850,038	64,23
850,448	64,26
850,857	64,46
851,267	64,13
851,676	64,62
852,086	64,48
852,495	64,21
852,904	64,27
853,313	64,42
853,722	64,05
854,131	64,15
854,54	63,8
854,949	64,38
855,357	64,1
855,766	63,98
856,174	64,36
856,583	64,09
856,991	64,26
857,399	64,36
857,807	64,13
858,215	64,33
858,623	64,05
859,031	64,32
859,439	63,79
859,846	63,96
860,254	64,46
860,661	64,23
861,069	64,18
861,476	64,19
861,883	64,24
862,29	64,22
862,697	64,35
863,104	64,14
863,511	64,32
863,918	64,1
864,325	63,92
864,731	64,28
865,138	64,48
865,544	64,13
865,95	64,5
866,357	64,33
866,763	64,35
867,169	64,14
867,575	64,08
867,98	64,41
868,386	64,42
868,792	64,51
869,197	64,35
869,603	63,97
870,008	63,96
870,414	64
870,819	63,88
871,224	64,31
871,629	63,8
872,034	63,85
872,439	64,13
872,844	63,86
873,248	64,04
873,653	64,01
874,057	64,22
874,462	63,81
874,866	64,27
875,27	64,24
875,674	63,93
876,078	64,35
876,482	64,02
876,886	64,52
877,29	64,13
877,694	63,72
878,097	64,22
878,501	64,11
878,904	64,06
879,308	63,97
879,711	64,26
880,114	63,89
880,517	64,35
880,92	64,04
881,323	64,2
881,726	64,04
882,128	63,89
882,531	64,29
882,934	64,06
883,336	64,19
883,738	64,08
884,141	64,28
884,543	63,79
884,945	63,89
885,347	63,66
885,749	64,33
886,151	64,01
886,552	64,16
886,954	63,53
887,355	64
887,757	64,21
888,158	63,57
888,56	63,88
888,961	64,39
889,362	63,93
889,763	63,63
890,164	64,09
890,565	64,25
890,965	63,9
891,366	63,67
891,767	64,77
892,167	64,47
892,567	63,87
892,968	63,73
893,368	64,09
893,768	64,11
894,168	63,75
894,568	64,27
894,968	63,93
895,368	64,35
895,767	63,75
896,167	63,79
896,566	64,32
896,966	64,03
897,365	63,98
897,764	64,36
898,164	63,96
898,563	63,8
898,962	64,24
899,361	64,46
899,759	63,63
900,158	63,85
900,557	64,2
900,955	64,01
901,354	63,94
901,752	64,06
902,15	63,67
902,548	63,82
902,947	64,54
903,345	63,92
903,742	64,02
904,14	64,43
904,538	64,26
904,936	63,87
905,333	63,83
905,731	63,82
906,128	64,19
906,525	64,49
906,923	64,39
907,32	64,73
907,717	63,72
908,114	64,06
908,511	64,14
908,907	63,64
909,304	63,88
909,701	64,13
910,097	64,23
910,494	64,02
910,89	64,09
911,286	64,13
911,682	64,04
912,078	63,79
912,474	63,91
912,87	63,94
913,266	64,21
913,662	64,11
914,058	63,83
914,453	64,02
914,849	64,27
915,244	63,93
915,639	64,01
916,034	64,02
916,43	63,8
916,825	63,71
917,22	64,11
917,614	64,12
918,009	63,65
918,404	64,13
918,798	64,43
919,193	63,82
919,587	63,66
919,982	64,48
920,376	63,62
920,77	64,34
921,164	64,26
921,558	64,3
921,952	63,6
922,346	64,29
922,74	64,03
923,133	63,18
923,527	63,66
923,92	64,59
924,314	63,87
924,707	64,09
925,1	64,45
925,493	63,97
925,886	64,04
926,279	63,96
926,672	64,36
927,065	63,85
927,457	63,7
927,85	64,03
928,243	63,46
928,635	64,08
929,027	63,93
929,42	63,61
929,812	63,77
930,204	63,5
930,596	64,16
930,988	63,69
931,379	63,3
931,771	63,98
932,163	63,94
932,554	63,77
932,946	63,7
933,337	63,65
933,729	63,25
934,12	63,95
934,511	63,42
934,902	64,03
935,293	63,82
935,684	63,66
936,075	63,6
936,465	64,25
936,856	63,36
937,246	63,29
937,637	64,22
938,027	64,12
938,417	63,41
938,808	63,43
939,198	63,51
939,588	62,8
939,978	63,39
940,368	63,97
940,757	63,97
941,147	63,46
941,537	63,26
941,926	63,77
942,315	63,2
942,705	63,73
943,094	64,22
943,483	62,75
943,872	63,18
944,261	63,64
944,65	63,61
945,039	63,58
945,428	64
945,816	63,27
946,205	63,13
946,593	62,96
946,982	63,8
947,37	62,99
947,758	62,94
948,146	63,42
948,534	62,65
948,922	62,76
949,31	62,75
949,698	62,9
950,086	63,13
950,473	63,29
950,861	63,36
951,248	64,32
951,636	62,99
952,023	63,06
952,41	62,96
952,797	63,08
953,184	62,92
953,571	62,43
953,958	63,19
954,345	63,12
954,731	62,08
955,118	62,1
955,505	62,77
955,891	62,63
956,277	62,81
956,664	62,17
957,05	62,5
957,436	62,22
957,822	63,19
958,208	62,18
958,594	62,65
958,979	62,36
959,365	62,01
959,751	62,37
960,136	62,3
960,522	61,83
960,907	62,7
961,292	62
961,677	62,49
962,062	62,69
962,447	62,56
962,832	62,49
963,217	62
963,602	62,53
963,986	61,79
964,371	62,42
964,756	61,89
965,14	62,12
965,524	62,19
965,908	62,28
966,293	62,23
966,677	61,89
967,061	62,29
967,445	62,23
967,828	62,15
968,212	62,7
968,596	62,58
968,979	62,88
969,363	62,71
969,746	62,53
970,129	62,29
970,513	62,36
970,896	62,24
971,279	62,33
971,662	62,55
972,045	62,7
972,428	62,58
972,81	62,62
973,193	62,96
973,575	62,69
973,958	62,41
974,34	62,25
974,723	62,51
975,105	62,69
975,487	62,15
975,869	62,7
976,251	62,33
976,633	61,6
977,015	62,13
977,396	63,32
977,778	62,37
978,16	62,2
978,541	62,65
978,922	62,33
979,304	62,31
979,685	63,14
980,066	62,43
980,447	62,4
980,828	62,28
981,209	62,82
981,59	62,59
981,97	63,03
982,351	63,34
982,732	62,58
983,112	62,32
983,493	62,57
983,873	63,81
984,253	62,69
984,633	62,84
985,013	62,64
985,393	61,76
985,773	62,47
986,153	62,65
986,533	62,72
986,912	62,23
987,292	62,26
987,671	62,26
988,051	62,54
988,43	63,11
988,809	62,44
989,188	62,47
989,567	62,78
989,946	62,31
990,325	61,97
990,704	62,69
991,083	62,92
991,461	62,89
991,84	62,23
992,218	62,06
992,597	63,42
992,975	62,45
993,353	63,05
993,732	61,57
994,11	62,38
994,488	62,9
994,866	62,59
995,243	61,94
995,621	62,92
995,999	62,51
996,376	62,98
996,754	62,74
997,131	62,63
997,509	62,77
997,886	62,41
998,263	62,86
998,64	62,97
999,017	62,93
999,394	63,43
999,771	62,78
1000,148	62,62
1000,524	62,93
1000,901	63,48
1001,277	62,67
1001,654	63,68
1002,03	62,94
1002,406	62,17
1002,783	62,72
1003,159	63,23
1003,535	63,08
1003,911	63,22
1004,286	63,06
1004,662	62,97
1005,038	62,36
1005,414	63,18
1005,789	62,55
1006,164	62,19
1006,54	63,01
1006,915	63,94
1007,29	62,68
1007,665	63,15
1008,04	64,17
1008,415	63,37
1008,79	63,46
1009,165	62,92
1009,54	62,84
1009,914	62,98
1010,289	63,63
1010,663	62,86
1011,038	63,86
1011,412	62,74
1011,786	62,86
1012,16	63,66
1012,535	63,15
1012,909	63,8
1013,282	63,35
1013,656	63,1
1014,03	62,91
1014,404	63,67
1014,777	63,31
1015,151	64,03
1015,524	63,46
1015,897	63,22
1016,271	63,5
1016,644	63,78
1017,017	64,42
1017,39	63,7
1017,763	63,5
1018,136	63,23
1018,508	63,73
1018,881	63,77
1019,254	63,69
1019,626	62,75
1019,999	64,03
1020,371	63,6
1020,743	63,71
1021,116	63,43
1021,488	63,72
1021,86	64,17
1022,232	63,4
1022,604	63,22
1022,975	63,22
1023,347	63,8
1023,719	64,61
1024,09	64,38
1024,462	64,04
1024,833	64,12
1025,204	64,19
1025,576	63,62
1025,947	63,62
1026,318	64,24
1026,689	63,37
1027,06	64,73
1027,431	63,12
1027,801	63,31
1028,172	63,32
1028,543	63,56
1028,913	64,7
1029,284	63,79
1029,654	63,64
1030,024	63,76
1030,394	63,7
1030,764	63,72
1031,135	63,4
1031,504	63,18
1031,874	64,23
1032,244	63,56
1032,614	63,58
1032,983	64,37
1033,353	64,03
1033,722	63,14
1034,092	64,38
1034,461	63,97
1034,83	64,52
1035,2	63,98
1035,569	63,14
1035,938	63,23
1036,307	64,42
1036,675	63,34
1037,044	63,97
1037,413	64,54
1037,781	64,03
1038,15	63,46
1038,518	64,19
1038,887	64,64
1039,255	63,4
1039,623	65,07
1039,991	64,56
1040,359	64,21
1040,727	63,48
1041,095	63,09
1041,463	63,39
1041,831	63,65
1042,198	64,79
1042,566	64,84
1042,933	64,6
1043,301	64,02
1043,668	63,87
1044,035	64,55
1044,402	65,1
1044,77	64,09
1045,137	63,88
1045,503	64,49
1045,87	65,33
1046,237	62,77
1046,604	64,77
1046,97	63,72
1047,337	64,17
1047,703	64,2
1048,07	64,45
1048,436	64,35
1048,802	64,33
1049,168	64,52
1049,534	65,42
1049,9	64,13
1050,266	63,79
1050,632	64,04
1050,998	65,29
1051,364	64,45
1051,729	64,49
1052,095	63,67
1052,46	64,46
1052,825	64,22
1053,191	65,14
1053,556	64,39
1053,921	65,59
1054,286	64,02
1054,651	64,79
1055,016	65,22
1055,381	65,16
1055,745	64,71
1056,11	64,34
1056,475	63,89
1056,839	65,65
1057,203	64,23
1057,568	64,59
1057,932	64,13
1058,296	63,91
1058,66	65,42
1059,024	62,73
1059,388	64,24
1059,752	66,13
1060,116	65,1
1060,48	65,66
1060,843	63,63
1061,207	64,41
1061,57	64,85
1061,934	64,08
1062,297	63,16
1062,66	65,99
1063,023	64
1063,386	65,79
1063,749	64,67
1064,112	63,67
1064,475	63,91
1064,838	63,87
1065,201	63,27
1065,563	63,94
1065,926	65,48
1066,288	64,86
1066,651	64,31
1067,013	64,68
1067,375	64,94
1067,737	63,41
1068,099	65,33
1068,461	63,72
1068,823	64,02
1069,185	64,16
1069,547	65,02
1069,909	65,71
1070,27	64,09
1070,632	65,09
1070,993	64,14
1071,355	65,49
1071,716	64,9
1072,077	64,94
1072,438	64,03
1072,799	64,08
1073,16	65,14
1073,521	64,43
1073,882	65,65
1074,243	64,45
1074,603	64,62
1074,964	65,96
1075,325	65,85
1075,685	65,27
1076,045	65,92
1076,406	66,02
1076,766	65,71
1077,126	65,3
1077,486	64,56
1077,846	63,93
1078,206	64,54
1078,566	64,56
1078,925	64,94
1079,285	64,34
1079,645	64,02
1080,004	65,01
1080,364	65,38
1080,723	64,44
1081,082	65,79
1081,442	65,95
1081,801	67,02
1082,16	66,28
1082,519	67,1
1082,878	63,78
1083,237	64,78
1083,595	64,33
1083,954	64,84
1084,313	63,88
1084,671	64,6
1085,03	64,25
1085,388	65,6
1085,746	67
1086,104	66,25
1086,463	62,85
1086,821	65,49
1087,179	65,83
1087,537	66,48
1087,894	64,72
1088,252	63,41
1088,61	62,89
1088,967	64,59
1089,325	66,06
1089,682	64,24
1090,04	65,53
1090,397	65,19
1090,754	65,25
1091,111	66,18
1091,469	64,47
1091,826	64,65
1092,182	65,67
1092,539	66,91
1092,896	62,64
1093,253	65,8
1093,609	67,29
1093,966	62,61
1094,322	66,3
1094,679	64,27
1095,035	65,66
1095,391	65,04
1095,748	66,29
1096,104	64,47
1096,46	64,12
1096,816	62,91
1097,171	66,27
1097,527	65,76
1097,883	64,63
1098,239	66,65
1098,594	63,23
1098,95	64,95
1099,305	63,03
1099,66	66,86
1100,016	64,26
1100,371	62,93
1100,726	64,36
1101,081	64,93
1101,436	64,67
1101,791	64,23
1102,146	64,62
1102,5	64,92
1102,855	66,06
1103,21	65,22
1103,564	61,41
1103,918	65,19
1104,273	66,79
1104,627	65,43
1104,981	64,95
1105,335	64,64
1105,69	64,79
1106,043	65,49
1106,397	63,06
1106,751	67,27
1107,105	67,56
1107,459	65,82
1107,812	65,12
1108,166	65,2
1108,519	62,92
1108,873	63,26
1109,226	65,73
1109,579	63,83
1109,932	63,96
1110,285	63,63
1110,638	65,02
1110,991	65,19
1111,344	63,88
1111,697	65,44
1112,05	66,29
1112,402	65,38
1112,755	62,68
1113,107	65,42
1113,46	66,03
1113,812	64,67
1114,164	69,88
1114,517	67,53
1114,869	85,37
1115,221	78
1115,573	79,71
1115,924	80,8
