Data from C6__Relative__3__00032.txt Node

Date: Tue Jan 30 17:53:41 CET 2024
User: diatiterra
Spectrometer: HDX00911
Trigger mode: 0
Integration Time (sec): 6,000000E-3
Scans to average: 3
Nonlinearity correction enabled: true
Boxcar width: 0
Storing dark spectrum: false
XAxis mode: Wavelengths
Number of Pixels in Spectrum: 2068
>>>>>Begin Spectral Data<<<<<
194,468	85,15
195,025	71,59
195,581	76,07
196,138	60,86
196,694	74,57
197,251	62,26
197,807	61,35
198,363	57,86
198,919	59,36
199,474	70,41
200,03	56,39
200,586	55,15
201,141	54,45
201,696	55,48
202,251	52,54
202,806	59,67
203,361	58,14
203,916	58,62
204,471	61,24
205,025	58,49
205,58	60,8
206,134	59,49
206,688	56,21
207,242	57,94
207,796	58,94
208,35	55,7
208,904	56,03
209,457	60,52
210,011	57,59
210,564	59,59
211,117	61,06
211,67	65,58
212,223	61,99
212,776	61,13
213,329	56,87
213,881	61,63
214,434	57,56
214,986	61,03
215,538	61,17
216,09	59,42
216,642	61,31
217,194	56,16
217,746	60,67
218,297	59,15
218,849	63,52
219,4	62,79
219,951	58,47
220,502	61,65
221,053	56,51
221,604	55,67
222,155	60,57
222,705	60,29
223,256	55,79
223,806	58,19
224,356	58,37
224,906	58,6
225,456	59,11
226,006	53,79
226,556	56,63
227,106	64,32
227,655	60,08
228,204	58,07
228,754	60,46
229,303	59,47
229,852	59,78
230,401	64,59
230,949	59,91
231,498	56,12
232,047	54,7
232,595	62,1
233,143	61,23
233,691	58,83
234,239	56,79
234,787	57,87
235,335	58,62
235,883	63,5
236,43	64,18
236,978	55,89
237,525	61,8
238,072	54,39
238,619	60,44
239,166	57,22
239,713	54,15
240,26	58,46
240,806	59,58
241,353	55,81
241,899	58,98
242,445	58,35
242,991	57,08
243,537	57,93
244,083	60,84
244,629	63,43
245,174	60,97
245,72	60,34
246,265	59,55
246,81	61,59
247,355	55,93
247,9	58,49
248,445	63,16
248,99	62,83
249,534	58,48
250,079	62,56
250,623	54,5
251,168	58,88
251,712	57,96
252,256	51,64
252,8	61,14
253,343	61,26
253,887	57,7
254,43	63,21
254,974	60,4
255,517	60,63
256,06	63,95
256,603	60,98
257,146	56,21
257,689	60,42
258,232	58,01
258,774	62,45
259,317	57,83
259,859	60,04
260,401	70,26
260,943	60,81
261,485	57,71
262,027	60,67
262,569	61,91
263,11	58,11
263,652	65,6
264,193	64,39
264,734	64,18
265,275	62,47
265,816	63,8
266,357	60,83
266,898	58,66
267,438	62,56
267,979	66,9
268,519	61,02
269,059	60,61
269,6	57,56
270,14	58,78
270,68	53,03
271,219	59,23
271,759	65,13
272,298	56,58
272,838	56,21
273,377	55,13
273,916	55,46
274,455	58,75
274,994	65,35
275,533	59,33
276,072	59
276,61	59,01
277,149	54,14
277,687	59,39
278,225	61,45
278,763	57,76
279,301	55,15
279,839	59,55
280,377	59,44
280,914	61,44
281,452	63,93
281,989	62,22
282,526	59,47
283,064	60,65
283,601	57,02
284,137	63,12
284,674	57,81
285,211	63,13
285,747	59,96
286,284	58
286,82	53,33
287,356	64,51
287,892	59,02
288,428	55,95
288,964	56,84
289,5	60,39
290,035	59,42
290,571	59,79
291,106	63,98
291,641	62,45
292,176	62,58
292,711	55,94
293,246	58,72
293,781	60,63
294,315	55,9
294,85	61,54
295,384	59,17
295,918	55,48
296,453	58,21
296,987	64,03
297,52	54,09
298,054	58,55
298,588	59,4
299,121	61,55
299,655	57,3
300,188	58,51
300,721	58,37
301,254	64,34
301,787	58,47
302,32	62,6
302,853	53,74
303,385	60,22
303,918	59,1
304,45	55,29
304,982	55,92
305,514	56,41
306,046	55,16
306,578	56,25
307,11	60,93
307,641	59,97
308,173	58,74
308,704	62,37
309,236	56,16
309,767	55,11
310,298	54,88
310,829	55,84
311,359	63,48
311,89	54,61
312,421	58,19
312,951	57,05
313,481	55,97
314,012	58,74
314,542	55,15
315,072	58
315,601	53,4
316,131	63,69
316,661	56,02
317,19	53,84
317,72	56,96
318,249	57,99
318,778	53,23
319,307	61,88
319,836	57,72
320,365	58,42
320,893	56,48
321,422	56,3
321,95	57,32
322,479	59,12
323,007	55,12
323,535	50,32
324,063	55,36
324,591	59,55
325,118	60,1
325,646	55,36
326,173	57,12
326,701	59,05
327,228	64
327,755	59,2
328,282	54,91
328,809	56,8
329,336	57,25
329,862	57,39
330,389	51,85
330,915	57,43
331,441	53,7
331,968	58,42
332,494	49,69
333,02	54,84
333,545	57,88
334,071	52,89
334,597	55,32
335,122	53,18
335,648	52,91
336,173	55
336,698	56,05
337,223	51,63
337,748	50,57
338,272	51,88
338,797	51,5
339,322	59,49
339,846	57,29
340,37	53,59
340,894	56,2
341,419	55,95
341,942	52,72
342,466	46,98
342,99	54,27
343,514	50,1
344,037	49,8
344,56	54,25
345,084	47,01
345,607	46,86
346,13	50,82
346,653	47,02
347,175	51,31
347,698	51,4
348,221	47,66
348,743	47,41
349,265	52,47
349,787	50,07
350,309	51,05
350,831	50,07
351,353	40,3
351,875	46,8
352,397	42,23
352,918	43,66
353,439	47,72
353,961	45,97
354,482	42,71
355,003	40,37
355,524	40,75
356,044	38,72
356,565	41,99
357,086	42,8
357,606	40,13
358,126	42,32
358,646	40,43
359,167	42,59
359,687	43,64
360,206	40,27
360,726	41,65
361,246	39,55
361,765	39,22
362,285	43,15
362,804	39,18
363,323	42,21
363,842	42,49
364,361	44,01
364,88	40,72
365,398	39,2
365,917	39,25
366,435	38,7
366,954	37,46
367,472	38,86
367,99	39,31
368,508	35,18
369,026	34,96
369,544	36,52
370,061	38
370,579	34,37
371,096	37,51
371,613	38,34
372,131	37,68
372,648	38,42
373,165	34,69
373,681	36,08
374,198	32,55
374,715	36,1
375,231	37,76
375,747	34,39
376,264	34,43
376,78	32,91
377,296	34,76
377,812	32,99
378,327	34,01
378,843	33
379,359	31,72
379,874	32,67
380,389	31,26
380,905	32,78
381,42	30
381,935	29,7
382,449	28,2
382,964	29,83
383,479	29,24
383,993	31,22
384,508	28,52
385,022	28,67
385,536	30,57
386,05	27,97
386,564	29,01
387,078	27,68
387,592	26,47
388,105	24,58
388,619	24,9
389,132	22,55
389,645	26,63
390,158	25,69
390,671	22,69
391,184	23,7
391,697	22,43
392,21	22,2
392,722	23,67
393,235	23,98
393,747	22,88
394,259	22,35
394,771	22,06
395,283	21,39
395,795	22,04
396,307	22,57
396,818	22,31
397,33	21,91
397,841	20,23
398,353	20,01
398,864	19,75
399,375	19,81
399,886	18,92
400,397	17,33
400,907	17,96
401,418	17,67
401,928	17,83
402,439	15,56
402,949	17,02
403,459	15,86
403,969	15,87
404,479	16,33
404,989	15,58
405,498	14,73
406,008	14,25
406,517	14,68
407,027	13,98
407,536	12,81
408,045	12,01
408,554	12,48
409,063	10,93
409,572	11,15
410,08	11,15
410,589	10,62
411,097	10,04
411,606	9,22
412,114	9,57
412,622	9,09
413,13	8,71
413,638	8,69
414,145	7,78
414,653	8,36
415,16	7,3
415,668	7,89
416,175	7,95
416,682	7,03
417,189	7,28
417,696	6,85
418,203	6,96
418,71	6,85
419,216	6,85
419,723	6,56
420,229	6,23
420,735	6,26
421,242	6,21
421,748	6,12
422,254	6,05
422,759	5,95
423,265	5,96
423,771	5,58
424,276	5,51
424,781	5,49
425,287	5,58
425,792	5,74
426,297	5,32
426,802	5,43
427,306	5,64
427,811	5,42
428,316	5,14
428,82	5,39
429,324	4,96
429,829	4,94
430,333	5,11
430,837	5,15
431,34	4,76
431,844	4,99
432,348	5,14
432,851	4,74
433,355	4,7
433,858	4,9
434,361	4,66
434,864	4,58
435,367	4,5
435,87	4,55
436,373	4,82
436,876	4,73
437,378	4,72
437,88	4,54
438,383	4,39
438,885	4,66
439,387	4,66
439,889	4,49
440,391	4,52
440,892	4,22
441,394	4,51
441,896	4,4
442,397	4,61
442,898	4,47
443,399	4,79
443,9	4,46
444,401	4,68
444,902	4,37
445,403	4,47
445,903	4,45
446,404	4,4
446,904	4,53
447,405	4,75
447,905	4,49
448,405	5,01
448,905	4,74
449,404	4,9
449,904	4,69
450,404	4,95
450,903	4,78
451,403	5,03
451,902	4,99
452,401	4,93
452,9	5,12
453,399	5,01
453,898	5,2
454,396	5,27
454,895	5,21
455,393	5,09
455,892	5,14
456,39	5,09
456,888	5,16
457,386	5,29
457,884	4,85
458,382	5,33
458,879	5,09
459,377	5,24
459,874	5,33
460,372	5,33
460,869	5,38
461,366	5,2
461,863	5,14
462,36	5,03
462,857	5,24
463,353	5,32
463,85	5,23
464,346	5,13
464,843	5,02
465,339	5,11
465,835	5,35
466,331	5,19
466,827	5,12
467,323	4,98
467,818	5,27
468,314	5,16
468,809	5,02
469,305	5,22
469,8	5,33
470,295	5,42
470,79	5,2
471,285	5,25
471,78	5,24
472,274	5,18
472,769	5,28
473,263	5,2
473,758	5,36
474,252	5,13
474,746	5,22
475,24	4,96
475,734	5,19
476,228	5,3
476,721	5,17
477,215	5,39
477,708	5,45
478,202	5,39
478,695	5,31
479,188	5,31
479,681	5,28
480,174	5,29
480,667	5,39
481,159	5,31
481,652	5,52
482,144	5,48
482,637	5,47
483,129	5,45
483,621	5,42
484,113	5,54
484,605	5,42
485,097	5,46
485,588	5,4
486,08	5,59
486,571	5,71
487,063	5,6
487,554	5,63
488,045	5,81
488,536	5,88
489,027	5,72
489,518	5,93
490,008	5,94
490,499	5,89
490,989	6,11
491,48	6,05
491,97	6,31
492,46	6,18
492,95	6,54
493,44	6,58
493,93	6,53
494,419	6,67
494,909	6,63
495,398	6,95
495,888	7,14
496,377	7,2
496,866	7,16
497,355	7,32
497,844	7,33
498,333	7,52
498,821	7,85
499,31	7,93
499,798	8,1
500,287	8,26
500,775	8,63
501,263	8,73
501,751	8,88
502,239	9,21
502,727	9,39
503,215	9,53
503,702	9,61
504,19	10
504,677	10,33
505,164	10,4
505,651	10,59
506,139	11,06
506,625	11,29
507,112	11,64
507,599	11,94
508,086	11,92
508,572	12,53
509,058	12,61
509,545	12,88
510,031	13,26
510,517	13,53
511,003	13,89
511,489	14,2
511,974	14,7
512,46	15,03
512,946	15,4
513,431	15,77
513,916	16
514,401	16,22
514,887	17,19
515,371	17,28
515,856	17,5
516,341	17,99
516,826	18,34
517,31	18,74
517,795	19,14
518,279	19,78
518,763	19,93
519,247	20,36
519,731	20,75
520,215	21,44
520,699	21,52
521,182	21,94
521,666	22,48
522,149	22,81
522,633	23,37
523,116	23,53
523,599	23,96
524,082	24,49
524,565	24,98
525,048	25,29
525,53	25,25
526,013	25,74
526,495	26,24
526,978	26,47
527,46	26,67
527,942	27,12
528,424	27,16
528,906	27,57
529,388	27,76
529,87	28,43
530,351	28,12
530,833	28,56
531,314	28,79
531,795	29,03
532,277	29,23
532,758	29,56
533,238	29,48
533,719	29,66
534,2	29,42
534,681	29,99
535,161	30,2
535,642	30,1
536,122	30,23
536,602	30,65
537,082	30,16
537,562	30,4
538,042	30,78
538,522	30,47
539,001	30,93
539,481	30,99
539,96	30,94
540,44	31,03
540,919	31,02
541,398	31,2
541,877	31,39
542,356	31,32
542,835	31,33
543,313	31,1
543,792	31,71
544,27	31,55
544,749	31,52
545,227	32,06
545,705	31,84
546,183	31,98
546,661	31,64
547,139	31,88
547,616	32
548,094	31,79
548,571	31,81
549,049	32,14
549,526	32,24
550,003	32,21
550,48	32,25
550,957	32,39
551,434	32,05
551,911	32,25
552,387	32,28
552,864	32,04
553,34	32,04
553,817	32,15
554,293	32,1
554,769	32,48
555,245	32,21
555,721	32,31
556,197	32,24
556,672	32,12
557,148	32,39
557,623	32,23
558,099	31,98
558,574	32,23
559,049	31,97
559,524	31,92
559,999	31,67
560,474	31,95
560,948	31,51
561,423	31,74
561,897	31,46
562,372	31,24
562,846	31,32
563,32	31,39
563,794	31,32
564,268	31,01
564,742	30,65
565,216	30,68
565,69	30,38
566,163	30,66
566,636	30,07
567,11	29,93
567,583	29,56
568,056	29,68
568,529	29,44
569,002	29,14
569,475	29,21
569,947	28,77
570,42	28,58
570,892	28,16
571,365	28,28
571,837	28,12
572,309	27,87
572,781	27,55
573,253	27,58
573,725	27,41
574,197	26,93
574,668	26,86
575,14	26,65
575,611	26,57
576,082	26,18
576,554	26,19
577,025	25,96
577,496	25,53
577,967	25,76
578,437	25,53
578,908	25,36
579,379	25,08
579,849	24,98
580,319	24,93
580,79	24,59
581,26	24,57
581,73	24,35
582,2	24,12
582,669	23,78
583,139	23,82
583,609	23,86
584,078	23,56
584,548	23,56
585,017	23,51
585,486	23,46
585,955	23,03
586,424	23,06
586,893	23
587,362	22,77
587,83	22,73
588,299	22,51
588,767	22,42
589,236	22,41
589,704	22,31
590,172	22,23
590,64	22,23
591,108	22,17
591,576	22,14
592,043	22,04
592,511	22,07
592,978	21,85
593,446	21,85
593,913	21,55
594,38	21,62
594,847	21,46
595,314	21,42
595,781	21,28
596,248	21,38
596,715	21,22
597,181	21,19
597,647	21,17
598,114	21,16
598,58	21,15
599,046	21,26
599,512	21,05
599,978	20,93
600,444	20,9
600,91	20,86
601,375	20,87
601,841	20,91
602,306	20,6
602,771	20,9
603,236	20,49
603,702	20,5
604,167	20,63
604,631	20,28
605,096	20,4
605,561	20,29
606,025	20,19
606,49	20,09
606,954	20,05
607,418	19,79
607,882	19,86
608,347	19,74
608,81	19,64
609,274	19,37
609,738	19,29
610,202	19,28
610,665	19,02
611,128	18,85
611,592	19,01
612,055	18,64
612,518	18,7
612,981	18,47
613,444	18,36
613,907	18,26
614,369	18,03
614,832	18,22
615,294	17,86
615,757	17,79
616,219	17,6
616,681	17,55
617,143	17,33
617,605	17,36
618,067	17,27
618,529	17,06
618,99	17,05
619,452	16,86
619,913	16,8
620,375	16,57
620,836	16,61
621,297	16,52
621,758	16,44
622,219	16,45
622,68	16,32
623,14	16,39
623,601	16,1
624,061	16,15
624,522	16,03
624,982	16,12
625,442	16,08
625,902	16,13
626,362	16,03
626,822	16,04
627,282	16,04
627,742	15,95
628,201	15,82
628,661	15,81
629,12	15,85
629,579	15,88
630,038	15,92
630,497	15,89
630,956	15,75
631,415	15,6
631,874	15,68
632,332	15,7
632,791	15,72
633,249	15,66
633,708	15,46
634,166	15,41
634,624	15,38
635,082	15,25
635,54	15,19
635,998	15,03
636,455	14,99
636,913	14,8
637,37	14,75
637,828	14,61
638,285	14,39
638,742	14,29
639,199	14,15
639,656	13,95
640,113	13,75
640,57	13,61
641,027	13,41
641,483	13,27
641,94	13,05
642,396	13,02
642,852	12,77
643,309	12,55
643,765	12,27
644,221	12,25
644,676	12,04
645,132	11,88
645,588	11,79
646,043	11,46
646,499	11,29
646,954	11,22
647,409	11
647,864	10,83
648,319	10,64
648,774	10,49
649,229	10,43
649,684	10,19
650,139	10,19
650,593	10,02
651,047	10,05
651,502	9,88
651,956	9,8
652,41	9,67
652,864	9,69
653,318	9,63
653,772	9,58
654,225	9,48
654,679	9,31
655,133	9,2
655,586	9,27
656,039	9,14
656,492	9,09
656,946	8,9
657,399	8,82
657,851	8,77
658,304	8,48
658,757	8,4
659,209	8,25
659,662	8,18
660,114	7,98
660,567	7,86
661,019	7,83
661,471	7,61
661,923	7,42
662,375	7,32
662,826	7,36
663,278	7,15
663,73	7
664,181	6,85
664,632	6,71
665,084	6,56
665,535	6,5
665,986	6,42
666,437	6,33
666,888	6,28
667,338	6,16
667,789	6,11
668,24	6,03
668,69	6,02
669,14	6,04
669,591	5,96
670,041	5,93
670,491	5,91
670,941	5,93
671,391	5,93
671,84	5,91
672,29	5,91
672,74	6
673,189	5,97
673,638	5,96
674,088	6,13
674,537	6,15
674,986	6,16
675,435	6,29
675,883	6,32
676,332	6,41
676,781	6,46
677,229	6,59
677,678	6,71
678,126	6,78
678,574	6,86
679,022	7,03
679,47	7,09
679,918	7,22
680,366	7,4
680,814	7,43
681,261	7,66
681,709	7,78
682,156	7,97
682,604	8,18
683,051	8,32
683,498	8,48
683,945	8,77
684,392	8,96
684,839	9,15
685,286	9,43
685,732	9,77
686,179	9,96
686,625	10,37
687,071	10,59
687,518	11,09
687,964	11,52
688,41	12
688,856	12,36
689,301	12,97
689,747	13,52
690,193	14,02
690,638	14,64
691,084	15,2
691,529	15,82
691,974	16,5
692,419	17,15
692,864	17,95
693,309	18,61
693,754	19,38
694,199	20,03
694,643	20,9
695,088	21,62
695,532	22,34
695,977	22,92
696,421	23,83
696,865	24,52
697,309	25,23
697,753	25,98
698,197	26,59
698,64	27,37
699,084	28,05
699,527	28,68
699,971	29,56
700,414	30,08
700,857	30,72
701,3	31,39
701,743	31,89
702,186	32,69
702,629	33,17
703,072	33,59
703,515	34,45
703,957	34,72
704,399	35,52
704,842	35,85
705,284	36,3
705,726	36,81
706,168	37,34
706,61	37,8
707,052	38,22
707,494	38,67
707,935	38,99
708,377	39,56
708,818	39,93
709,26	40,38
709,701	40,83
710,142	41,15
710,583	41,59
711,024	41,9
711,465	42,4
711,905	42,58
712,346	42,8
712,787	43,43
713,227	43,68
713,667	44,27
714,108	44,54
714,548	44,68
714,988	44,9
715,428	45,18
715,868	45,69
716,307	45,61
716,747	46,32
717,186	46,53
717,626	46,77
718,065	47,15
718,504	46,95
718,944	47,93
719,383	48
719,822	48,14
720,261	48,08
720,699	48,69
721,138	48,67
721,576	49,11
722,015	49,09
722,453	49,53
722,892	49,77
723,33	49,92
723,768	50,01
724,206	50,35
724,644	50,32
725,081	50,79
725,519	50,78
725,957	50,93
726,394	50,9
726,832	51,07
727,269	51,7
727,706	51,32
728,143	51,67
728,58	51,79
729,017	51,87
729,454	52,41
729,89	52,32
730,327	52,19
730,764	52,39
731,2	52,47
731,636	52,56
732,072	52,79
732,509	52,67
732,945	52,7
733,38	53,21
733,816	52,99
734,252	53,23
734,688	52,81
735,123	53,09
735,559	53,41
735,994	53,32
736,429	53,47
736,864	53,63
737,299	53,07
737,734	53,44
738,169	53,33
738,604	53,51
739,038	53,52
739,473	53,56
739,907	53,9
740,342	53,67
740,776	53,45
741,21	53,76
741,644	53,77
742,078	53,93
742,512	53,74
742,946	53,92
743,379	53,62
743,813	53,84
744,246	53,74
744,68	53,88
745,113	53,58
745,546	53,42
745,979	53,74
746,412	53,68
746,845	53,59
747,278	53,77
747,711	53,58
748,143	53,66
748,576	53,59
749,008	53,64
749,441	53,63
749,873	53,53
750,305	53,53
750,737	53,51
751,169	53,68
751,601	53,55
752,032	53,41
752,464	53,26
752,896	53,15
753,327	53,18
753,758	53,23
754,19	53,29
754,621	53,55
755,052	53,21
755,483	53,12
755,914	53,26
756,344	53,22
756,775	53,33
757,206	53,27
757,636	53,16
758,066	53,06
758,497	53,1
758,927	52,95
759,357	53,13
759,787	53,05
760,217	53
760,647	52,94
761,076	52,9
761,506	52,6
761,935	52,79
762,365	52,62
762,794	52,91
763,223	52,84
763,653	52,96
764,082	52,6
764,51	52,64
764,939	52,9
765,368	52,84
765,797	52,59
766,225	52,6
766,654	52,43
767,082	52,44
767,51	52,58
767,938	52,36
768,367	52,57
768,795	52,32
769,222	52,55
769,65	52,62
770,078	52,67
770,505	52,13
770,933	52,47
771,36	52,16
771,788	52,28
772,215	52,3
772,642	52,26
773,069	52,2
773,496	52,18
773,923	52,1
774,349	52,04
774,776	52,32
775,203	52,19
775,629	52,25
776,055	52,17
776,482	52,2
776,908	52,08
777,334	52,11
777,76	52,02
778,186	52,05
778,611	52,17
779,037	51,97
779,463	51,9
779,888	52,02
780,314	51,92
780,739	52,1
781,164	51,97
781,589	51,91
782,014	51,82
782,439	52,08
782,864	51,89
783,289	51,87
783,713	51,56
784,138	51,67
784,562	51,96
784,987	51,51
785,411	51,65
785,835	51,55
786,259	51,71
786,683	51,87
787,107	51,82
787,531	51,61
787,954	51,9
788,378	51,85
788,802	51,68
789,225	51,72
789,648	51,76
790,071	51,89
790,495	51,72
790,918	51,77
791,34	51,71
791,763	51,48
792,186	51,88
792,609	51,89
793,031	51,67
793,454	51,6
793,876	51,96
794,298	51,6
794,721	51,78
795,143	51,92
795,565	51,65
795,986	51,65
796,408	51,67
796,83	51,83
797,252	51,77
797,673	51,62
798,094	51,52
798,516	51,61
798,937	51,53
799,358	51,71
799,779	51,36
800,2	51,74
800,621	51,7
801,042	51,66
801,462	51,29
801,883	51,67
802,303	51,56
802,724	51,59
803,144	51,57
803,564	51,42
803,984	51,44
804,404	51,74
804,824	51,66
805,244	51,84
805,664	51,54
806,084	51,7
806,503	51,71
806,923	51,41
807,342	51,33
807,761	51,3
808,18	51,56
808,599	51,65
809,018	51,58
809,437	51,37
809,856	51,14
810,275	51,35
810,693	51,51
811,112	51,57
811,53	51,48
811,949	51,65
812,367	51,3
812,785	51,59
813,203	51,33
813,621	51,73
814,039	51,47
814,457	51,15
814,874	51,45
815,292	51,65
815,709	51,42
816,127	51,51
816,544	51,4
816,961	51,27
817,378	51,62
817,795	51,45
818,212	51,42
818,629	51,39
819,046	51,44
819,462	51,66
819,879	51,49
820,295	51,26
820,712	51,34
821,128	51,71
821,544	51,41
821,96	51,26
822,376	51,47
822,792	51,35
823,208	51,64
823,624	51,62
824,039	51,44
824,455	51,27
824,87	51,33
825,286	51,35
825,701	51,36
826,116	51,17
826,531	51,29
826,946	51,28
827,361	51,25
827,776	51,27
828,19	51,39
828,605	51,37
829,02	51,25
829,434	51,08
829,848	51,48
830,263	51,24
830,677	51,32
831,091	51,67
831,505	51,33
831,919	51,24
832,332	50,9
832,746	51,21
833,16	51,34
833,573	51,16
833,987	51,35
834,4	51,12
834,813	51,47
835,226	51,22
835,639	51,26
836,052	51,37
836,465	51,21
836,878	51,48
837,29	51,13
837,703	51,21
838,116	51,34
838,528	51,02
838,94	51,22
839,352	51,18
839,765	51,35
840,177	51,03
840,589	51,28
841	51,29
841,412	51,21
841,824	51,21
842,235	51,14
842,647	51,04
843,058	51,14
843,47	51,19
843,881	51,25
844,292	51,42
844,703	51,08
845,114	51,32
845,525	51,31
845,935	51,28
846,346	50,94
846,757	51,17
847,167	51,37
847,577	51,35
847,988	50,94
848,398	51,2
848,808	51,06
849,218	51,3
849,628	51,19
850,038	51,12
850,448	51,12
850,857	51,47
851,267	51,28
851,676	51,16
852,086	51,23
852,495	51,15
852,904	51,13
853,313	51,15
853,722	51,13
854,131	51,28
854,54	51,12
854,949	51,31
855,357	51,14
855,766	51,08
856,174	50,77
856,583	50,98
856,991	51,19
857,399	51,36
857,807	51,22
858,215	51,18
858,623	51,21
859,031	51,3
859,439	51,28
859,846	51,17
860,254	51,25
860,661	51,02
861,069	51,22
861,476	51,29
861,883	50,94
862,29	50,95
862,697	51,04
863,104	50,94
863,511	50,69
863,918	50,85
864,325	50,93
864,731	50,63
865,138	51,3
865,544	51,11
865,95	51,09
866,357	50,86
866,763	50,91
867,169	51,26
867,575	50,96
867,98	50,96
868,386	51
868,792	50,77
869,197	51,3
869,603	50,92
870,008	51,04
870,414	50,9
870,819	51,05
871,224	51,05
871,629	50,85
872,034	51,03
872,439	50,89
872,844	51,09
873,248	50,99
873,653	50,91
874,057	51,24
874,462	51,05
874,866	51,11
875,27	51,01
875,674	51,17
876,078	50,89
876,482	50,97
876,886	51,1
877,29	50,79
877,694	50,85
878,097	50,73
878,501	50,69
878,904	51,07
879,308	50,8
879,711	51,07
880,114	51,09
880,517	50,78
880,92	51,37
881,323	51,04
881,726	50,84
882,128	50,89
882,531	51,15
882,934	50,83
883,336	50,78
883,738	51,32
884,141	51,17
884,543	51,1
884,945	50,95
885,347	51,09
885,749	50,94
886,151	50,85
886,552	50,87
886,954	50,99
887,355	51,04
887,757	50,71
888,158	50,84
888,56	51,05
888,961	50,92
889,362	50,87
889,763	51
890,164	51,11
890,565	51,04
890,965	51,2
891,366	51,16
891,767	51,03
892,167	51,06
892,567	50,64
892,968	51,01
893,368	51,07
893,768	50,9
894,168	50,9
894,568	51,12
894,968	51,12
895,368	51
895,767	50,9
896,167	50,86
896,566	50,91
896,966	50,87
897,365	51,38
897,764	50,9
898,164	50,76
898,563	50,95
898,962	51,15
899,361	50,98
899,759	50,72
900,158	50,76
900,557	51,02
900,955	51,31
901,354	50,92
901,752	50,84
902,15	51,12
902,548	50,84
902,947	50,84
903,345	51,05
903,742	50,84
904,14	50,99
904,538	50,92
904,936	50,94
905,333	50,98
905,731	50,98
906,128	50,66
906,525	50,83
906,923	51,11
907,32	50,87
907,717	50,56
908,114	51,08
908,511	50,59
908,907	51,03
909,304	50,87
909,701	50,76
910,097	50,83
910,494	51,2
910,89	50,75
911,286	50,77
911,682	51,27
912,078	51,3
912,474	51,15
912,87	51,05
913,266	50,86
913,662	50,94
914,058	51,14
914,453	51,15
914,849	51
915,244	51,03
915,639	51,16
916,034	51,2
916,43	51,02
916,825	51,27
917,22	51,14
917,614	50,98
918,009	50,78
918,404	50,95
918,798	50,79
919,193	50,84
919,587	50,83
919,982	50,8
920,376	50,76
920,77	50,96
921,164	50,91
921,558	51,26
921,952	50,94
922,346	50,91
922,74	50,9
923,133	50,93
923,527	50,91
923,92	50,83
924,314	50,9
924,707	50,71
925,1	50,78
925,493	50,62
925,886	50,99
926,279	50,59
926,672	50,51
927,065	50,6
927,457	50,65
927,85	50,55
928,243	50,78
928,635	50,59
929,027	50,54
929,42	50,59
929,812	50,69
930,204	50,45
930,596	50,84
930,988	51,03
931,379	50,78
931,771	50,69
932,163	51,05
932,554	50,66
932,946	50,5
933,337	50,66
933,729	50,21
934,12	50,47
934,511	50,63
934,902	50,66
935,293	50,62
935,684	50,71
936,075	50,45
936,465	50,52
936,856	49,63
937,246	50,66
937,637	50,35
938,027	50,78
938,417	50,55
938,808	50,61
939,198	50,25
939,588	50,29
939,978	50,12
940,368	50,39
940,757	50,36
941,147	50,67
941,537	50,63
941,926	49,92
942,315	50,07
942,705	50,88
943,094	50,46
943,483	50,39
943,872	50,35
944,261	50,09
944,65	50,62
945,039	50,26
945,428	49,84
945,816	50,45
946,205	50,06
946,593	50,37
946,982	50,31
947,37	50,67
947,758	50,26
948,146	49,68
948,534	49,52
948,922	49,86
949,31	49,88
949,698	50,01
950,086	50,03
950,473	49,86
950,861	49,97
951,248	49,75
951,636	50,29
952,023	49,58
952,41	49,64
952,797	49,3
953,184	49,94
953,571	49,53
953,958	49,5
954,345	49,59
954,731	49,59
955,118	49,58
955,505	49,74
955,891	50,02
956,277	49,93
956,664	49,51
957,05	49,35
957,436	49,81
957,822	49,88
958,208	49,78
958,594	50
958,979	49,29
959,365	49,25
959,751	49,27
960,136	49,4
960,522	49,06
960,907	49,4
961,292	49,39
961,677	49,47
962,062	49,51
962,447	49,73
962,832	49,54
963,217	49,39
963,602	49,44
963,986	49,44
964,371	49,66
964,756	49,17
965,14	49,62
965,524	49,46
965,908	49,07
966,293	49,24
966,677	49,07
967,061	50,26
967,445	49,28
967,828	49,36
968,212	50,06
968,596	49,5
968,979	49,24
969,363	49,37
969,746	49,78
970,129	49,11
970,513	48,99
970,896	49,33
971,279	49,14
971,662	49,65
972,045	49,31
972,428	49,12
972,81	49,27
973,193	49,33
973,575	49,46
973,958	49,01
974,34	49,18
974,723	49,61
975,105	49,42
975,487	49,5
975,869	49,94
976,251	49,47
976,633	49,3
977,015	49,48
977,396	49,37
977,778	49,56
978,16	49,42
978,541	49,56
978,922	49,23
979,304	49,54
979,685	49,26
980,066	49,43
980,447	49,27
980,828	49,52
981,209	49,5
981,59	49,31
981,97	49,45
982,351	49,69
982,732	49,86
983,112	49,72
983,493	49,91
983,873	49,83
984,253	49,84
984,633	49,59
985,013	49,18
985,393	49,42
985,773	49,33
986,153	49,6
986,533	49,67
986,912	50,04
987,292	49,22
987,671	49,24
988,051	49,64
988,43	49,87
988,809	49,58
989,188	50,04
989,567	49,51
989,946	49,73
990,325	49,59
990,704	49,64
991,083	49,57
991,461	49,59
991,84	49,35
992,218	49,73
992,597	49,8
992,975	49,5
993,353	49,73
993,732	49,83
994,11	49,15
994,488	49,52
994,866	49,57
995,243	49,84
995,621	49,56
995,999	49,8
996,376	49,6
996,754	49,3
997,131	49,79
997,509	49,72
997,886	49,8
998,263	49,94
998,64	49,25
999,017	50,2
999,394	49,95
999,771	49,76
1000,148	50,22
1000,524	49,84
1000,901	49,78
1001,277	50,49
1001,654	49,55
1002,03	50,07
1002,406	50,16
1002,783	49,7
1003,159	49,7
1003,535	49,89
1003,911	49,84
1004,286	50,28
1004,662	49,87
1005,038	50,07
1005,414	49,72
1005,789	50,09
1006,164	49,73
1006,54	50,3
1006,915	49,59
1007,29	49,61
1007,665	49,89
1008,04	50,15
1008,415	50,27
1008,79	50,22
1009,165	49,83
1009,54	49,91
1009,914	50,41
1010,289	49,75
1010,663	50,08
1011,038	50,62
1011,412	49,83
1011,786	50,09
1012,16	50,33
1012,535	49,87
1012,909	50,29
1013,282	50,08
1013,656	50,44
1014,03	50,07
1014,404	50,23
1014,777	50,16
1015,151	50,48
1015,524	50,68
1015,897	50,58
1016,271	50,6
1016,644	50,53
1017,017	50,61
1017,39	50,8
1017,763	49,99
1018,136	50,6
1018,508	50,34
1018,881	50,54
1019,254	50,46
1019,626	50,27
1019,999	49,88
1020,371	50,3
1020,743	50,32
1021,116	50,51
1021,488	50,46
1021,86	50,81
1022,232	50,87
1022,604	50,28
1022,975	50,68
1023,347	50,17
1023,719	50,1
1024,09	50,74
1024,462	51,07
1024,833	50,08
1025,204	50,51
1025,576	50,78
1025,947	50,68
1026,318	50,74
1026,689	50,88
1027,06	50,7
1027,431	50,71
1027,801	50,9
1028,172	50,33
1028,543	51,05
1028,913	51,18
1029,284	50,46
1029,654	50,7
1030,024	50,56
1030,394	50,74
1030,764	50,16
1031,135	50,74
1031,504	50,62
1031,874	51,11
1032,244	50,68
1032,614	50,58
1032,983	50,98
1033,353	50,96
1033,722	50,34
1034,092	50,5
1034,461	50,63
1034,83	51,07
1035,2	50,82
1035,569	50,92
1035,938	49,96
1036,307	51,32
1036,675	51,1
1037,044	50,8
1037,413	51,13
1037,781	51,45
1038,15	50,92
1038,518	50,81
1038,887	51,49
1039,255	50,66
1039,623	50,74
1039,991	50,76
1040,359	51,01
1040,727	51,08
1041,095	51,24
1041,463	50,81
1041,831	50,81
1042,198	51,27
1042,566	50,24
1042,933	51,12
1043,301	51,57
1043,668	50,26
1044,035	51,3
1044,402	50,74
1044,77	50,89
1045,137	50,39
1045,503	51,2
1045,87	50,72
1046,237	50,77
1046,604	51,03
1046,97	51,54
1047,337	51,74
1047,703	51,46
1048,07	51,23
1048,436	51,23
1048,802	51,19
1049,168	50,84
1049,534	52,11
1049,9	51,4
1050,266	51,7
1050,632	50,61
1050,998	51,88
1051,364	51,66
1051,729	51,28
1052,095	50,21
1052,46	51,22
1052,825	51,56
1053,191	51,26
1053,556	51,75
1053,921	51,03
1054,286	51
1054,651	51,14
1055,016	50,78
1055,381	52,17
1055,745	52,23
1056,11	51,47
1056,475	51,83
1056,839	51,98
1057,203	50,8
1057,568	51,99
1057,932	50,92
1058,296	52,55
1058,66	52,41
1059,024	51,28
1059,388	51,77
1059,752	51,66
1060,116	52,23
1060,48	52,51
1060,843	51,51
1061,207	50,81
1061,57	53,07
1061,934	52,8
1062,297	51,48
1062,66	51,13
1063,023	51,51
1063,386	52,14
1063,749	51,98
1064,112	51,45
1064,475	51,21
1064,838	50,5
1065,201	52,71
1065,563	51,43
1065,926	51,45
1066,288	51,49
1066,651	52,22
1067,013	51,13
1067,375	52,24
1067,737	51,35
1068,099	51,83
1068,461	51,3
1068,823	52,05
1069,185	52,36
1069,547	51,3
1069,909	53,37
1070,27	51,52
1070,632	51,11
1070,993	50,88
1071,355	51,12
1071,716	50,82
1072,077	52,03
1072,438	51,84
1072,799	51,71
1073,16	52,25
1073,521	51,99
1073,882	52,02
1074,243	52,27
1074,603	52,59
1074,964	50,92
1075,325	52
1075,685	53,21
1076,045	52,12
1076,406	51,11
1076,766	51,35
1077,126	52,21
1077,486	51,24
1077,846	51,45
1078,206	52,01
1078,566	50,71
1078,925	51,86
1079,285	52,73
1079,645	51,91
1080,004	52,52
1080,364	52,67
1080,723	52,85
1081,082	51,92
1081,442	51,88
1081,801	51,92
1082,16	52,7
1082,519	51,82
1082,878	51,67
1083,237	51,26
1083,595	52,14
1083,954	52,59
1084,313	51,06
1084,671	52,34
1085,03	52,42
1085,388	51,05
1085,746	52,22
1086,104	50,49
1086,463	51,08
1086,821	52,19
1087,179	51,49
1087,537	52,18
1087,894	52,55
1088,252	53,65
1088,61	52,49
1088,967	51,14
1089,325	52,35
1089,682	50,76
1090,04	52,19
1090,397	51,31
1090,754	51,66
1091,111	51,57
1091,469	52,1
1091,826	52,14
1092,182	51,31
1092,539	53,7
1092,896	51,49
1093,253	52,06
1093,609	52,25
1093,966	51
1094,322	53,16
1094,679	50,17
1095,035	52,13
1095,391	51,76
1095,748	52,33
1096,104	53,29
1096,46	51,62
1096,816	52,68
1097,171	52,21
1097,527	53,83
1097,883	51,57
1098,239	53,93
1098,594	53,14
1098,95	53,8
1099,305	52,67
1099,66	54,1
1100,016	52,37
1100,371	53,01
1100,726	51,34
1101,081	51,82
1101,436	52,36
1101,791	53,85
1102,146	52,38
1102,5	51,76
1102,855	51,26
1103,21	52,55
1103,564	54,37
1103,918	52,75
1104,273	53,19
1104,627	52,56
1104,981	52,66
1105,335	53,73
1105,69	51,48
1106,043	51,86
1106,397	53,63
1106,751	52,62
1107,105	52,23
1107,459	52,06
1107,812	51,75
1108,166	54,47
1108,519	53
1108,873	53,18
1109,226	53,08
1109,579	54,9
1109,932	54,31
1110,285	53,02
1110,638	55,28
1110,991	54,42
1111,344	51,02
1111,697	51,23
1112,05	52,46
1112,402	53,12
1112,755	52,7
1113,107	52,69
1113,46	53,44
1113,812	54,83
1114,164	56,27
1114,517	52,39
1114,869	82,35
1115,221	73,56
1115,573	73,68
1115,924	67,98
