Data from D5__Relative__10__00065.txt Node

Date: Tue Jan 30 17:56:26 CET 2024
User: diatiterra
Spectrometer: HDX00911
Trigger mode: 0
Integration Time (sec): 6,000000E-3
Scans to average: 3
Nonlinearity correction enabled: true
Boxcar width: 0
Storing dark spectrum: false
XAxis mode: Wavelengths
Number of Pixels in Spectrum: 2068
>>>>>Begin Spectral Data<<<<<
194,468	90,95
195,025	68,69
195,581	74,69
196,138	70,85
196,694	67,65
197,251	58,22
197,807	55,25
198,363	54,3
198,919	54,35
199,474	57,87
200,03	51,57
200,586	46,46
201,141	46,96
201,696	48,96
202,251	53,15
202,806	51,12
203,361	55,6
203,916	48,79
204,471	49,28
205,025	47,56
205,58	51,51
206,134	50
206,688	51,4
207,242	49,49
207,796	48,57
208,35	54,1
208,904	52,27
209,457	51,22
210,011	50,63
210,564	48,51
211,117	53,48
211,67	57,46
212,223	56,29
212,776	56,51
213,329	50,64
213,881	52,83
214,434	48,4
214,986	54,17
215,538	54,87
216,09	51,92
216,642	53,49
217,194	50,81
217,746	52,51
218,297	52,38
218,849	54,72
219,4	54,54
219,951	58,26
220,502	53,81
221,053	49,06
221,604	52,54
222,155	50,1
222,705	53,43
223,256	51,11
223,806	53,19
224,356	54,81
224,906	48,62
225,456	52,37
226,006	53,99
226,556	49,21
227,106	55,98
227,655	49,68
228,204	55,76
228,754	52,51
229,303	51,61
229,852	52,61
230,401	51,25
230,949	53,51
231,498	49,03
232,047	49,38
232,595	53,32
233,143	53,18
233,691	52,27
234,239	51,47
234,787	54,19
235,335	53,63
235,883	50,88
236,43	51,34
236,978	50,81
237,525	50,71
238,072	47,9
238,619	53,7
239,166	48,5
239,713	47,25
240,26	50,53
240,806	49,58
241,353	54,81
241,899	57,22
242,445	51,79
242,991	51,33
243,537	51,16
244,083	50,09
244,629	58,58
245,174	50,63
245,72	51,17
246,265	53,73
246,81	54,97
247,355	49,02
247,9	56,61
248,445	54,7
248,99	59,35
249,534	55,13
250,079	55,51
250,623	50,09
251,168	51,86
251,712	49,68
252,256	46,27
252,8	53,57
253,343	57,05
253,887	52,17
254,43	56,03
254,974	56,64
255,517	51,24
256,06	52,16
256,603	55,65
257,146	53,38
257,689	54,47
258,232	54,54
258,774	51,93
259,317	53,44
259,859	52,64
260,401	61,53
260,943	56,14
261,485	50,44
262,027	55,56
262,569	57,02
263,11	52,56
263,652	55,2
264,193	51,55
264,734	50,96
265,275	52,32
265,816	51,59
266,357	54,16
266,898	51,3
267,438	52,69
267,979	57,15
268,519	51,33
269,059	53,39
269,6	55,11
270,14	55,81
270,68	49,79
271,219	58,1
271,759	49,12
272,298	47,73
272,838	56,86
273,377	52,13
273,916	52,52
274,455	50,21
274,994	55,19
275,533	44,89
276,072	51,1
276,61	51,13
277,149	52,01
277,687	53,06
278,225	57,29
278,763	45,62
279,301	53,87
279,839	50,91
280,377	52,28
280,914	50,63
281,452	50,01
281,989	52,36
282,526	51,52
283,064	53,55
283,601	48,59
284,137	52,89
284,674	52,32
285,211	51,59
285,747	48,61
286,284	57,09
286,82	48,44
287,356	49,69
287,892	58,31
288,428	50,22
288,964	51,45
289,5	53,68
290,035	50,45
290,571	47,02
291,106	60,16
291,641	54,76
292,176	52,6
292,711	46,65
293,246	55,53
293,781	50,56
294,315	49,58
294,85	54,39
295,384	54,47
295,918	45,98
296,453	53,39
296,987	55,89
297,52	54,09
298,054	49,78
298,588	54,7
299,121	51,82
299,655	54,51
300,188	48,91
300,721	51,76
301,254	56,24
301,787	55,93
302,32	56,48
302,853	52,46
303,385	51,56
303,918	50,97
304,45	48,59
304,982	51,37
305,514	55,06
306,046	45,05
306,578	51,94
307,11	50,33
307,641	58,83
308,173	48,83
308,704	56,13
309,236	55
309,767	55,96
310,298	47,72
310,829	52,92
311,359	52,9
311,89	53,94
312,421	49,37
312,951	54,19
313,481	57,12
314,012	50,11
314,542	54,27
315,072	54,59
315,601	49,99
316,131	53,82
316,661	54,27
317,19	53,12
317,72	52,18
318,249	47,55
318,778	51,94
319,307	46,19
319,836	50,56
320,365	49,54
320,893	48,35
321,422	46,3
321,95	47,34
322,479	49,34
323,007	42,73
323,535	46,03
324,063	51,12
324,591	53,41
325,118	47,57
325,646	54,05
326,173	54,18
326,701	48,8
327,228	47,56
327,755	58,23
328,282	44,01
328,809	49,12
329,336	52,27
329,862	52,61
330,389	47,7
330,915	51,44
331,441	49,26
331,968	48,82
332,494	46,86
333,02	47,96
333,545	49,03
334,071	46
334,597	46,76
335,122	48,58
335,648	46,66
336,173	51,25
336,698	47,02
337,223	44,67
337,748	50,38
338,272	46,96
338,797	47,28
339,322	50,11
339,846	46,4
340,37	50,23
340,894	50,85
341,419	45,3
341,942	44,13
342,466	41,7
342,99	51,54
343,514	49,69
344,037	43,67
344,56	43,95
345,084	44,21
345,607	45,44
346,13	41,88
346,653	43,31
347,175	42,19
347,698	44,77
348,221	40,46
348,743	40,16
349,265	46,02
349,787	44,36
350,309	43,73
350,831	43,76
351,353	37,99
351,875	41,81
352,397	38,36
352,918	43,15
353,439	41,33
353,961	42,05
354,482	35,54
355,003	37,72
355,524	36,06
356,044	36,26
356,565	37,11
357,086	42,18
357,606	36,61
358,126	40,18
358,646	39,36
359,167	41,26
359,687	39,01
360,206	37,04
360,726	34,98
361,246	37,34
361,765	38,67
362,285	38,22
362,804	37,29
363,323	38,23
363,842	36,52
364,361	37,12
364,88	35,7
365,398	35,71
365,917	36,52
366,435	33,38
366,954	32,49
367,472	31,01
367,99	37,69
368,508	34,07
369,026	31,29
369,544	34,93
370,061	32,44
370,579	34,6
371,096	31,63
371,613	33,25
372,131	32,48
372,648	31,49
373,165	33,29
373,681	30,71
374,198	32,77
374,715	31,24
375,231	33,6
375,747	31,27
376,264	29,93
376,78	30,13
377,296	30,13
377,812	28,44
378,327	32,21
378,843	27,18
379,359	30,25
379,874	30,55
380,389	29,58
380,905	28,21
381,42	28,39
381,935	29,45
382,449	27,24
382,964	24,5
383,479	24,6
383,993	27,73
384,508	25,48
385,022	24,72
385,536	28,19
386,05	24,6
386,564	26,62
387,078	24,73
387,592	24,18
388,105	23,5
388,619	24,58
389,132	22,25
389,645	23,11
390,158	21,27
390,671	22,35
391,184	21,88
391,697	21,83
392,21	21,23
392,722	21,21
393,235	22,13
393,747	20,86
394,259	20,81
394,771	21,37
395,283	20,78
395,795	20,97
396,307	20,38
396,818	20,19
397,33	19,82
397,841	18,73
398,353	19,59
398,864	17,4
399,375	18,89
399,886	18,67
400,397	16,34
400,907	16,27
401,418	17,19
401,928	16,01
402,439	15,96
402,949	16
403,459	14,45
403,969	15,03
404,479	13,98
404,989	12,98
405,498	13,38
406,008	13,2
406,517	13,66
407,027	12,83
407,536	11,77
408,045	11,2
408,554	11,13
409,063	11,2
409,572	10,61
410,08	10,6
410,589	10,19
411,097	9,56
411,606	9,49
412,114	9,21
412,622	9,03
413,13	8,54
413,638	8,82
414,145	7,85
414,653	7,42
415,16	7,6
415,668	7,78
416,175	7,17
416,682	7,08
417,189	7,04
417,696	6,46
418,203	6,64
418,71	6,8
419,216	6,44
419,723	6,21
420,229	6,2
420,735	6,47
421,242	6,23
421,748	6,31
422,254	5,89
422,759	5,83
423,265	5,81
423,771	5,97
424,276	5,79
424,781	5,67
425,287	5,84
425,792	5,73
426,297	5,28
426,802	5,32
427,306	5,35
427,811	5,54
428,316	5
428,82	5,21
429,324	5,41
429,829	5,09
430,333	5,23
430,837	5,22
431,34	4,89
431,844	5,24
432,348	5,29
432,851	4,91
433,355	5,15
433,858	5,14
434,361	4,89
434,864	4,84
435,367	4,68
435,87	4,8
436,373	4,84
436,876	4,74
437,378	4,9
437,88	4,8
438,383	4,6
438,885	4,76
439,387	4,64
439,889	4,67
440,391	4,6
440,892	4,63
441,394	4,47
441,896	4,83
442,397	5,03
442,898	4,5
443,399	4,59
443,9	4,69
444,401	4,63
444,902	4,85
445,403	4,41
445,903	4,82
446,404	4,71
446,904	4,71
447,405	4,54
447,905	4,74
448,405	5,27
448,905	4,82
449,404	4,82
449,904	4,74
450,404	4,97
450,903	4,9
451,403	4,8
451,902	4,89
452,401	4,94
452,9	4,9
453,399	4,93
453,898	4,92
454,396	5,09
454,895	5,22
455,393	4,94
455,892	4,96
456,39	5,05
456,888	4,96
457,386	5,05
457,884	5
458,382	5,27
458,879	5,04
459,377	5,11
459,874	5,13
460,372	5,24
460,869	4,96
461,366	4,96
461,863	5,3
462,36	5,03
462,857	5,1
463,353	5,12
463,85	4,97
464,346	5,09
464,843	4,84
465,339	5,1
465,835	5,03
466,331	5,07
466,827	5,25
467,323	4,95
467,818	5,12
468,314	5,12
468,809	4,97
469,305	4,93
469,8	4,96
470,295	5,09
470,79	5,16
471,285	5,01
471,78	5,04
472,274	5,1
472,769	5
473,263	5,02
473,758	5,09
474,252	5,11
474,746	5,11
475,24	5,17
475,734	4,92
476,228	5,02
476,721	5,14
477,215	5,3
477,708	5,15
478,202	5,23
478,695	5,11
479,188	5,13
479,681	4,93
480,174	5,1
480,667	5,15
481,159	5,2
481,652	5,18
482,144	5,11
482,637	5,29
483,129	5,12
483,621	5,29
484,113	5,34
484,605	5,25
485,097	5,32
485,588	5,29
486,08	5,26
486,571	5,3
487,063	5,32
487,554	5,52
488,045	5,49
488,536	5,43
489,027	5,42
489,518	5,48
490,008	5,59
490,499	5,55
490,989	5,6
491,48	5,59
491,97	5,68
492,46	5,69
492,95	5,71
493,44	5,89
493,93	5,85
494,419	5,88
494,909	6
495,398	6,22
495,888	6,27
496,377	6,22
496,866	6,12
497,355	6,36
497,844	6,37
498,333	6,51
498,821	6,65
499,31	6,77
499,798	6,67
500,287	6,82
500,775	7,05
501,263	7,24
501,751	7,37
502,239	7,32
502,727	7,51
503,215	7,65
503,702	7,78
504,19	7,91
504,677	8,05
505,164	8,15
505,651	8,48
506,139	8,45
506,625	8,63
507,112	8,99
507,599	9,17
508,086	9,33
508,572	9,7
509,058	9,57
509,545	9,89
510,031	9,99
510,517	10,28
511,003	10,52
511,489	10,54
511,974	10,97
512,46	10,97
512,946	11,52
513,431	11,63
513,916	11,95
514,401	12,02
514,887	12,69
515,371	12,6
515,856	12,84
516,341	13,15
516,826	13,36
517,31	13,73
517,795	13,96
518,279	14,39
518,763	14,53
519,247	14,9
519,731	15,11
520,215	15,48
520,699	15,78
521,182	15,98
521,666	16,16
522,149	16,51
522,633	16,93
523,116	17,11
523,599	17,41
524,082	17,84
524,565	18,09
525,048	18,37
525,53	18,57
526,013	19,08
526,495	19,03
526,978	19,31
527,46	19,3
527,942	19,59
528,424	20,12
528,906	20,07
529,388	20,18
529,87	20,41
530,351	20,5
530,833	20,81
531,314	20,8
531,795	20,95
532,277	20,9
532,758	21,47
533,238	21,4
533,719	21,35
534,2	21,87
534,681	21,58
535,161	22,06
535,642	21,86
536,122	21,92
536,602	21,89
537,082	22,43
537,562	22,23
538,042	22,5
538,522	22,33
539,001	22,31
539,481	22,35
539,96	22,55
540,44	22,68
540,919	22,39
541,398	22,5
541,877	22,92
542,356	23,09
542,835	22,8
543,313	23,01
543,792	23,13
544,27	22,89
544,749	22,92
545,227	23,07
545,705	23,15
546,183	23,15
546,661	23,22
547,139	23,28
547,616	23,13
548,094	23,21
548,571	23,28
549,049	23,02
549,526	23,3
550,003	23,38
550,48	23,23
550,957	23,36
551,434	23,33
551,911	23,59
552,387	23,37
552,864	23,5
553,34	23,36
553,817	23,44
554,293	23,7
554,769	23,74
555,245	23,6
555,721	23,34
556,197	23,61
556,672	23,48
557,148	23,59
557,623	23,52
558,099	23,53
558,574	23,42
559,049	23,24
559,524	23,33
559,999	23,09
560,474	23,26
560,948	23,11
561,423	22,87
561,897	22,95
562,372	22,93
562,846	22,78
563,32	22,6
563,794	22,61
564,268	22,48
564,742	22,63
565,216	22,28
565,69	22,29
566,163	22,25
566,636	22,03
567,11	21,86
567,583	21,6
568,056	21,66
568,529	21,45
569,002	21,28
569,475	21,11
569,947	20,81
570,42	20,89
570,892	20,7
571,365	20,42
571,837	20,29
572,309	20,14
572,781	20,03
573,253	19,84
573,725	19,73
574,197	19,5
574,668	19,55
575,14	19,24
575,611	18,79
576,082	19,08
576,554	19,17
577,025	18,84
577,496	18,58
577,967	18,57
578,437	18,5
578,908	18,06
579,379	18,19
579,849	17,93
580,319	17,88
580,79	17,72
581,26	17,57
581,73	17,6
582,2	17,57
582,669	17,27
583,139	17,3
583,609	17,14
584,078	17,05
584,548	17,18
585,017	16,83
585,486	16,81
585,955	16,65
586,424	16,53
586,893	16,56
587,362	16,44
587,83	16,37
588,299	16,44
588,767	16,21
589,236	16,2
589,704	15,93
590,172	16,12
590,64	15,9
591,108	15,84
591,576	15,87
592,043	15,82
592,511	15,7
592,978	15,48
593,446	15,61
593,913	15,46
594,38	15,42
594,847	15,49
595,314	15,34
595,781	15,43
596,248	15,43
596,715	15,25
597,181	15,22
597,647	15,3
598,114	15,36
598,58	15,2
599,046	15,1
599,512	15,11
599,978	15,02
600,444	14,96
600,91	14,88
601,375	15,04
601,841	15
602,306	14,92
602,771	14,78
603,236	14,82
603,702	14,73
604,167	14,78
604,631	14,7
605,096	14,53
605,561	14,52
606,025	14,48
606,49	14,48
606,954	14,3
607,418	14,4
607,882	14,1
608,347	14,17
608,81	14,04
609,274	13,73
609,738	13,84
610,202	13,84
610,665	13,61
611,128	13,55
611,592	13,64
612,055	13,43
612,518	13,47
612,981	13,24
613,444	13,23
613,907	13,1
614,369	13,01
614,832	13,07
615,294	12,79
615,757	12,89
616,219	12,76
616,681	12,62
617,143	12,48
617,605	12,38
618,067	12,4
618,529	12,17
618,99	12,22
619,452	12,31
619,913	12,05
620,375	12,06
620,836	12,09
621,297	12,2
621,758	11,85
622,219	11,71
622,68	11,78
623,14	11,95
623,601	11,81
624,061	11,76
624,522	11,72
624,982	11,7
625,442	11,79
625,902	11,72
626,362	11,62
626,822	11,55
627,282	11,64
627,742	11,51
628,201	11,53
628,661	11,41
629,12	11,43
629,579	11,36
630,038	11,52
630,497	11,24
630,956	11,38
631,415	11,38
631,874	11,3
632,332	11,34
632,791	11,4
633,249	11,2
633,708	11,17
634,166	11,26
634,624	11,1
635,082	10,88
635,54	11,02
635,998	10,93
636,455	10,79
636,913	10,81
637,37	10,68
637,828	10,57
638,285	10,45
638,742	10,41
639,199	10,23
639,656	10,12
640,113	10,05
640,57	9,88
641,027	9,78
641,483	9,69
641,94	9,55
642,396	9,46
642,852	9,39
643,309	9,14
643,765	9,14
644,221	9,02
644,676	8,89
645,132	8,82
645,588	8,68
646,043	8,45
646,499	8,5
646,954	8,38
647,409	8,17
647,864	8,13
648,319	8
648,774	7,93
649,229	7,99
649,684	7,83
650,139	7,71
650,593	7,73
651,047	7,61
651,502	7,58
651,956	7,44
652,41	7,47
652,864	7,38
653,318	7,37
653,772	7,37
654,225	7,36
654,679	7,23
655,133	7,28
655,586	7,19
656,039	7,17
656,492	7,09
656,946	6,91
657,399	6,9
657,851	6,79
658,304	6,81
658,757	6,76
659,209	6,58
659,662	6,56
660,114	6,51
660,567	6,46
661,019	6,39
661,471	6,31
661,923	6,19
662,375	6,07
662,826	6,06
663,278	5,95
663,73	5,87
664,181	5,88
664,632	5,83
665,084	5,74
665,535	5,7
665,986	5,66
666,437	5,57
666,888	5,6
667,338	5,58
667,789	5,58
668,24	5,52
668,69	5,55
669,14	5,55
669,591	5,54
670,041	5,57
670,491	5,5
670,941	5,53
671,391	5,6
671,84	5,62
672,29	5,62
672,74	5,73
673,189	5,72
673,638	5,77
674,088	5,86
674,537	5,81
674,986	5,99
675,435	6,02
675,883	6,04
676,332	6,15
676,781	6,3
677,229	6,31
677,678	6,4
678,126	6,47
678,574	6,58
679,022	6,63
679,47	6,79
679,918	6,86
680,366	6,92
680,814	7,11
681,261	7,18
681,709	7,37
682,156	7,39
682,604	7,55
683,051	7,63
683,498	7,76
683,945	7,94
684,392	8,15
684,839	8,14
685,286	8,29
685,732	8,46
686,179	8,68
686,625	8,75
687,071	8,98
687,518	9,23
687,964	9,47
688,41	9,71
688,856	9,9
689,301	10,26
689,747	10,48
690,193	10,85
690,638	11,16
691,084	11,62
691,529	11,93
691,974	12,31
692,419	12,77
692,864	13,09
693,309	13,61
693,754	14,02
694,199	14,62
694,643	14,91
695,088	15,54
695,532	16,18
695,977	16,56
696,421	17,03
696,865	17,51
697,309	18
697,753	18,57
698,197	18,95
698,64	19,69
699,084	20,01
699,527	20,59
699,971	20,95
700,414	21,47
700,857	21,97
701,3	22,41
701,743	22,84
702,186	23,29
702,629	23,85
703,072	24,22
703,515	24,54
703,957	25,09
704,399	25,44
704,842	25,73
705,284	26,16
705,726	26,65
706,168	26,95
706,61	27,38
707,052	27,67
707,494	27,96
707,935	28,44
708,377	28,84
708,818	28,86
709,26	29,41
709,701	29,78
710,142	29,9
710,583	30,3
711,024	30,5
711,465	30,8
711,905	31,21
712,346	31,44
712,787	31,59
713,227	32,19
713,667	32,33
714,108	32,7
714,548	32,77
714,988	33
715,428	33,42
715,868	33,71
716,307	33,66
716,747	34,27
717,186	34,51
717,626	34,67
718,065	34,75
718,504	34,88
718,944	35,52
719,383	35,56
719,822	35,69
720,261	36,02
720,699	36,09
721,138	36,1
721,576	36,58
722,015	36,8
722,453	36,9
722,892	37,11
723,33	37,18
723,768	37,46
724,206	37,67
724,644	37,86
725,081	37,9
725,519	38,26
725,957	38,08
726,394	38,38
726,832	38,45
727,269	38,57
727,706	38,48
728,143	38,77
728,58	38,96
729,017	39,06
729,454	39,24
729,89	39,27
730,327	39,37
730,764	39,64
731,2	39,62
731,636	39,68
732,072	39,76
732,509	39,82
732,945	40,01
733,38	39,85
733,816	39,93
734,252	40,05
734,688	39,99
735,123	40,03
735,559	40,33
735,994	40,34
736,429	40,2
736,864	40,37
737,299	40,29
737,734	40,31
738,169	40,58
738,604	40,58
739,038	40,54
739,473	40,7
739,907	40,48
740,342	40,64
740,776	40,37
741,21	40,63
741,644	40,76
742,078	40,73
742,512	40,76
742,946	40,8
743,379	40,63
743,813	40,65
744,246	40,66
744,68	40,82
745,113	40,6
745,546	40,5
745,979	40,63
746,412	40,8
746,845	40,52
747,278	40,83
747,711	40,71
748,143	40,64
748,576	40,53
749,008	40,56
749,441	40,5
749,873	40,52
750,305	40,43
750,737	40,45
751,169	40,58
751,601	40,4
752,032	40,43
752,464	40,4
752,896	40,33
753,327	40,31
753,758	40,24
754,19	40,33
754,621	40,52
755,052	40,38
755,483	40,09
755,914	40,22
756,344	40,35
756,775	40,3
757,206	40,35
757,636	40,1
758,066	40,19
758,497	40,01
758,927	40,08
759,357	39,98
759,787	40,11
760,217	40,01
760,647	39,98
761,076	39,79
761,506	40,01
761,935	39,65
762,365	39,95
762,794	39,75
763,223	39,78
763,653	39,89
764,082	39,86
764,51	39,83
764,939	39,7
765,368	39,66
765,797	39,94
766,225	39,77
766,654	39,59
767,082	39,64
767,51	39,63
767,938	39,57
768,367	39,46
768,795	39,59
769,222	39,42
769,65	39,55
770,078	39,42
770,505	39,34
770,933	39,5
771,36	39,42
771,788	39,49
772,215	39,39
772,642	39,22
773,069	39,31
773,496	39,41
773,923	39,19
774,349	39,41
774,776	39,34
775,203	39,37
775,629	39,31
776,055	39,41
776,482	39,44
776,908	39,31
777,334	39,07
777,76	39,16
778,186	39,19
778,611	39,2
779,037	39,28
779,463	39,13
779,888	39,28
780,314	39,15
780,739	39,25
781,164	39,29
781,589	39,01
782,014	39,23
782,439	39,2
782,864	39,06
783,289	39,28
783,713	39,12
784,138	39,03
784,562	39,27
784,987	39,03
785,411	38,92
785,835	38,9
786,259	39
786,683	39,2
787,107	39,06
787,531	39,02
787,954	38,89
788,378	39,18
788,802	39,34
789,225	38,99
789,648	38,99
790,071	39,01
790,495	38,77
790,918	39,03
791,34	38,93
791,763	38,97
792,186	38,96
792,609	38,99
793,031	38,83
793,454	38,87
793,876	38,92
794,298	38,79
794,721	38,89
795,143	38,95
795,565	38,97
795,986	38,91
796,408	38,89
796,83	38,85
797,252	38,91
797,673	38,99
798,094	38,91
798,516	38,92
798,937	38,86
799,358	38,88
799,779	38,8
800,2	38,75
800,621	38,82
801,042	38,66
801,462	38,73
801,883	38,87
802,303	38,95
802,724	38,78
803,144	38,96
803,564	38,91
803,984	38,73
804,404	38,78
804,824	38,9
805,244	38,88
805,664	38,94
806,084	38,79
806,503	39,02
806,923	38,84
807,342	38,8
807,761	38,64
808,18	38,95
808,599	38,76
809,018	38,79
809,437	38,85
809,856	38,84
810,275	38,67
810,693	38,74
811,112	38,72
811,53	38,7
811,949	39,12
812,367	38,63
812,785	38,86
813,203	38,77
813,621	38,91
814,039	38,9
814,457	38,67
814,874	38,84
815,292	38,73
815,709	38,56
816,127	38,79
816,544	38,74
816,961	38,77
817,378	38,99
817,795	38,6
818,212	38,63
818,629	38,81
819,046	38,56
819,462	38,72
819,879	38,98
820,295	38,58
820,712	38,64
821,128	38,73
821,544	38,52
821,96	38,68
822,376	38,61
822,792	38,77
823,208	38,78
823,624	38,67
824,039	38,6
824,455	38,51
824,87	38,77
825,286	38,87
825,701	38,74
826,116	38,57
826,531	38,44
826,946	38,63
827,361	38,57
827,776	38,59
828,19	38,43
828,605	38,54
829,02	38,55
829,434	38,58
829,848	38,86
830,263	38,72
830,677	38,49
831,091	38,72
831,505	38,64
831,919	38,53
832,332	38,29
832,746	38,53
833,16	38,5
833,573	38,57
833,987	38,3
834,4	38,69
834,813	38,47
835,226	38,49
835,639	38,36
836,052	38,54
836,465	38,67
836,878	38,72
837,29	38,59
837,703	38,35
838,116	38,56
838,528	38,5
838,94	38,61
839,352	38,4
839,765	38,49
840,177	38,56
840,589	38,54
841	38,43
841,412	38,47
841,824	38,47
842,235	38,4
842,647	38,35
843,058	38,48
843,47	38,57
843,881	38,52
844,292	38,34
844,703	38,41
845,114	38,6
845,525	38,65
845,935	38,43
846,346	38,26
846,757	38,41
847,167	38,64
847,577	38,73
847,988	38,38
848,398	38,49
848,808	38,18
849,218	38,48
849,628	38,29
850,038	38,53
850,448	38,47
850,857	38,58
851,267	38,47
851,676	38,48
852,086	38,49
852,495	38,1
852,904	38,26
853,313	38,22
853,722	38,31
854,131	38,43
854,54	38,4
854,949	38,35
855,357	38,26
855,766	38,35
856,174	38,33
856,583	38,3
856,991	38,48
857,399	38,49
857,807	38,45
858,215	38,34
858,623	38,63
859,031	38,48
859,439	38,55
859,846	38,3
860,254	38,4
860,661	38,32
861,069	38,34
861,476	38,5
861,883	38,06
862,29	38,55
862,697	38,49
863,104	38,25
863,511	38,32
863,918	38,45
864,325	38,3
864,731	37,93
865,138	38,43
865,544	38,53
865,95	38,33
866,357	38,15
866,763	38,67
867,169	38,23
867,575	38,58
867,98	38,37
868,386	38,47
868,792	38,34
869,197	38,37
869,603	38,09
870,008	38,32
870,414	38,02
870,819	38,24
871,224	38,27
871,629	38,02
872,034	38,3
872,439	38,57
872,844	38,59
873,248	38,54
873,653	38,29
874,057	38,34
874,462	38,31
874,866	38,27
875,27	38,54
875,674	38,18
876,078	38,36
876,482	38,35
876,886	38,21
877,29	38,1
877,694	38,33
878,097	38,36
878,501	37,96
878,904	38,14
879,308	38,33
879,711	38,27
880,114	38,31
880,517	38,24
880,92	38,24
881,323	38,56
881,726	38,49
882,128	38,16
882,531	38,2
882,934	38,26
883,336	38,33
883,738	38,3
884,141	38,24
884,543	38,27
884,945	38,18
885,347	38,37
885,749	38,22
886,151	37,9
886,552	38,16
886,954	38,31
887,355	38,27
887,757	38,07
888,158	38,42
888,56	38,57
888,961	38,4
889,362	38,23
889,763	38,21
890,164	38,45
890,565	38,44
890,965	38,39
891,366	38,24
891,767	38,42
892,167	38,53
892,567	38,19
892,968	38,39
893,368	38,34
893,768	38,18
894,168	38,22
894,568	38,31
894,968	38,28
895,368	37,92
895,767	38,21
896,167	38,51
896,566	38,21
896,966	38,1
897,365	38,41
897,764	38,18
898,164	38,31
898,563	38,23
898,962	38,21
899,361	38,38
899,759	38,19
900,158	38,45
900,557	38,16
900,955	38,39
901,354	38,3
901,752	38,44
902,15	38,09
902,548	38,1
902,947	37,91
903,345	38,17
903,742	38,22
904,14	38,26
904,538	38,33
904,936	38,2
905,333	38,17
905,731	38,19
906,128	38,16
906,525	38,19
906,923	38,23
907,32	38,11
907,717	38,28
908,114	38,29
908,511	38,12
908,907	38,32
909,304	38,35
909,701	38,13
910,097	38,13
910,494	38,39
910,89	38,28
911,286	38,18
911,682	38,09
912,078	38,29
912,474	38,55
912,87	38,43
913,266	38,2
913,662	38,28
914,058	38,14
914,453	38,43
914,849	38,1
915,244	38,16
915,639	38,31
916,034	38,52
916,43	38,37
916,825	38,57
917,22	38,14
917,614	38,17
918,009	37,8
918,404	38,06
918,798	38,14
919,193	38,08
919,587	38,21
919,982	38,07
920,376	38,16
920,77	38
921,164	38,32
921,558	38,41
921,952	38,19
922,346	38,16
922,74	38,26
923,133	38,13
923,527	37,96
923,92	38,22
924,314	38,28
924,707	37,85
925,1	38,2
925,493	38,06
925,886	38,18
926,279	37,96
926,672	37,92
927,065	37,89
927,457	38,17
927,85	38,09
928,243	38,09
928,635	38
929,027	38,03
929,42	38,07
929,812	37,89
930,204	37,95
930,596	38,1
930,988	38,19
931,379	37,97
931,771	38
932,163	38,32
932,554	37,82
932,946	37,91
933,337	38,07
933,729	38,02
934,12	38,1
934,511	37,89
934,902	37,74
935,293	38,03
935,684	37,86
936,075	38,03
936,465	37,57
936,856	37,6
937,246	37,93
937,637	37,8
938,027	38,08
938,417	38,03
938,808	37,78
939,198	37,96
939,588	37,43
939,978	37,77
940,368	37,84
940,757	37,59
941,147	37,61
941,537	38,42
941,926	37,55
942,315	37,57
942,705	38,19
943,094	37,55
943,483	38,02
943,872	37,58
944,261	37,75
944,65	38,02
945,039	37,72
945,428	37,53
945,816	37,27
946,205	37,59
946,593	37,88
946,982	37,88
947,37	37,68
947,758	37,38
948,146	37,11
948,534	37,27
948,922	37,61
949,31	37,42
949,698	37,53
950,086	37,66
950,473	37,13
950,861	36,97
951,248	37,51
951,636	37,11
952,023	37,29
952,41	37,06
952,797	37,41
953,184	37,36
953,571	37,21
953,958	37,39
954,345	37,42
954,731	37,32
955,118	37,06
955,505	37,63
955,891	37,91
956,277	37,36
956,664	37,09
957,05	36,65
957,436	37,38
957,822	37,29
958,208	37
958,594	37,11
958,979	36,9
959,365	37,18
959,751	37,49
960,136	37,24
960,522	36,95
960,907	36,89
961,292	37,14
961,677	36,97
962,062	37,18
962,447	37,16
962,832	37,08
963,217	37,38
963,602	37,14
963,986	37,13
964,371	36,9
964,756	37,13
965,14	37,31
965,524	36,96
965,908	37,18
966,293	36,91
966,677	36,94
967,061	37,23
967,445	36,86
967,828	37,38
968,212	37,28
968,596	37,16
968,979	37,15
969,363	37,12
969,746	36,81
970,129	36,79
970,513	36,99
970,896	37,34
971,279	36,74
971,662	37,14
972,045	37,02
972,428	37,35
972,81	36,86
973,193	36,78
973,575	37,12
973,958	37,22
974,34	37,17
974,723	36,98
975,105	37,15
975,487	37,5
975,869	37,5
976,251	37,32
976,633	37,31
977,015	37,02
977,396	37,43
977,778	36,87
978,16	37,21
978,541	37,3
978,922	37,03
979,304	36,99
979,685	37,12
980,066	37,41
980,447	37,04
980,828	37,12
981,209	37
981,59	37,12
981,97	37,26
982,351	37,51
982,732	37,24
983,112	37,44
983,493	37,29
983,873	37,06
984,253	37,29
984,633	37,09
985,013	37,36
985,393	37,33
985,773	37,34
986,153	37,5
986,533	37,14
986,912	37,38
987,292	37,47
987,671	37,18
988,051	37,5
988,43	37,1
988,809	37,45
989,188	37,48
989,567	36,95
989,946	37,17
990,325	36,93
990,704	37,42
991,083	37,2
991,461	37,22
991,84	36,91
992,218	37,3
992,597	37,69
992,975	37,14
993,353	37,58
993,732	37,22
994,11	37,18
994,488	37,72
994,866	37,33
995,243	37,28
995,621	37,54
995,999	37,32
996,376	37,61
996,754	37,44
997,131	37,18
997,509	37,44
997,886	37,42
998,263	37,56
998,64	37,13
999,017	37,48
999,394	37,1
999,771	37,43
1000,148	37,37
1000,524	37,34
1000,901	37,48
1001,277	37,91
1001,654	37,42
1002,03	37,52
1002,406	37,65
1002,783	37,47
1003,159	37,73
1003,535	37,49
1003,911	37,53
1004,286	38,21
1004,662	37,48
1005,038	37,7
1005,414	37,53
1005,789	37,75
1006,164	37,41
1006,54	37,63
1006,915	37,7
1007,29	37,63
1007,665	37,41
1008,04	37,86
1008,415	37,4
1008,79	38,09
1009,165	37,42
1009,54	37,75
1009,914	38,01
1010,289	37,76
1010,663	37,59
1011,038	38,3
1011,412	37,73
1011,786	38,2
1012,16	37,83
1012,535	37,62
1012,909	37,91
1013,282	37,6
1013,656	37,53
1014,03	37,55
1014,404	37,78
1014,777	37,46
1015,151	37,75
1015,524	38,29
1015,897	37,7
1016,271	37,84
1016,644	38,25
1017,017	37,79
1017,39	37,61
1017,763	37,45
1018,136	37,85
1018,508	37,72
1018,881	38,02
1019,254	37,68
1019,626	37,43
1019,999	37,83
1020,371	37,84
1020,743	38,25
1021,116	37,56
1021,488	37,96
1021,86	37,77
1022,232	38,22
1022,604	38,1
1022,975	38,43
1023,347	38,21
1023,719	38,25
1024,09	38,13
1024,462	38,77
1024,833	37,82
1025,204	38,19
1025,576	38,18
1025,947	38,11
1026,318	38,37
1026,689	37,88
1027,06	37,69
1027,431	37,93
1027,801	38,39
1028,172	38,32
1028,543	37,69
1028,913	38,04
1029,284	38,13
1029,654	38,32
1030,024	38,4
1030,394	38,56
1030,764	37,77
1031,135	38,08
1031,504	38,37
1031,874	38,19
1032,244	37,89
1032,614	38,31
1032,983	38,11
1033,353	37,9
1033,722	38,65
1034,092	37,92
1034,461	38,33
1034,83	38,39
1035,2	37,98
1035,569	38,01
1035,938	37,89
1036,307	38,92
1036,675	38,94
1037,044	37,87
1037,413	38,98
1037,781	38,53
1038,15	38,47
1038,518	38,8
1038,887	38,92
1039,255	38,34
1039,623	38,24
1039,991	38,48
1040,359	38,37
1040,727	38,31
1041,095	38,38
1041,463	38,36
1041,831	39,4
1042,198	38,81
1042,566	37,92
1042,933	38,22
1043,301	38,44
1043,668	38,49
1044,035	38,79
1044,402	39,02
1044,77	39,07
1045,137	38,27
1045,503	38,97
1045,87	38,09
1046,237	38,72
1046,604	38,91
1046,97	39,35
1047,337	38,36
1047,703	38,71
1048,07	38,5
1048,436	38,9
1048,802	38,88
1049,168	38,91
1049,534	38,87
1049,9	39,05
1050,266	38,69
1050,632	38,31
1050,998	38,9
1051,364	38,9
1051,729	39,03
1052,095	38,75
1052,46	38,63
1052,825	38,85
1053,191	38,92
1053,556	38,85
1053,921	38,94
1054,286	38,89
1054,651	38,5
1055,016	38,79
1055,381	38,84
1055,745	39,05
1056,11	39,32
1056,475	39,35
1056,839	39,34
1057,203	38,83
1057,568	39,76
1057,932	39,75
1058,296	38,97
1058,66	39,23
1059,024	38,72
1059,388	39,38
1059,752	38,81
1060,116	38,71
1060,48	39,13
1060,843	39,07
1061,207	39,36
1061,57	40,11
1061,934	39,61
1062,297	37,93
1062,66	39,18
1063,023	38,79
1063,386	39,27
1063,749	39,5
1064,112	39,95
1064,475	39,37
1064,838	38,96
1065,201	39,61
1065,563	38,42
1065,926	39,53
1066,288	39,88
1066,651	40,14
1067,013	39,38
1067,375	38,92
1067,737	39,73
1068,099	39,79
1068,461	39,41
1068,823	39,67
1069,185	39,47
1069,547	40,11
1069,909	40,02
1070,27	39,68
1070,632	38,95
1070,993	38,75
1071,355	39,47
1071,716	39,49
1072,077	38,99
1072,438	39,48
1072,799	39,23
1073,16	39,48
1073,521	39,57
1073,882	39,5
1074,243	39,72
1074,603	38,95
1074,964	39,4
1075,325	40,47
1075,685	39,82
1076,045	39,56
1076,406	40,07
1076,766	38,89
1077,126	39,37
1077,486	40,43
1077,846	39,57
1078,206	39,88
1078,566	39,38
1078,925	39,72
1079,285	39,52
1079,645	38,93
1080,004	39,64
1080,364	38,92
1080,723	39,34
1081,082	38,33
1081,442	39,7
1081,801	39,25
1082,16	40,08
1082,519	39,7
1082,878	39,23
1083,237	38,86
1083,595	40,23
1083,954	40,09
1084,313	38,82
1084,671	40,4
1085,03	40,57
1085,388	39,51
1085,746	39,1
1086,104	39,5
1086,463	40,41
1086,821	40,58
1087,179	39,9
1087,537	40,15
1087,894	39,39
1088,252	40,74
1088,61	40,92
1088,967	40,41
1089,325	40,03
1089,682	40,25
1090,04	39,25
1090,397	40,19
1090,754	40,25
1091,111	39,52
1091,469	40,21
1091,826	40,14
1092,182	40,23
1092,539	40,7
1092,896	39,77
1093,253	40,18
1093,609	40,71
1093,966	39,84
1094,322	39,74
1094,679	39,69
1095,035	40,85
1095,391	40,94
1095,748	39,62
1096,104	40,57
1096,46	39,73
1096,816	41,33
1097,171	39,88
1097,527	41,47
1097,883	40,35
1098,239	42,24
1098,594	40,69
1098,95	40,56
1099,305	40,14
1099,66	41,54
1100,016	41,38
1100,371	40,85
1100,726	40,43
1101,081	39,89
1101,436	39,99
1101,791	41,6
1102,146	40,66
1102,5	39,54
1102,855	40,53
1103,21	41,76
1103,564	42,56
1103,918	41,36
1104,273	41,47
1104,627	40,89
1104,981	40,41
1105,335	41,29
1105,69	39,97
1106,043	41,54
1106,397	40,86
1106,751	40,37
1107,105	42,23
1107,459	41,85
1107,812	40,42
1108,166	41,58
1108,519	40,42
1108,873	41,43
1109,226	40,98
1109,579	43,24
1109,932	40,51
1110,285	40,07
1110,638	42,82
1110,991	40,33
1111,344	41
1111,697	42,17
1112,05	43,35
1112,402	41,97
1112,755	41,03
1113,107	39,85
1113,46	42,7
1113,812	42,26
1114,164	42,91
1114,517	42,38
1114,869	77,59
1115,221	64,77
1115,573	68,15
1115,924	66,62
