Data from H1__Relative__5__00147.txt Node

Date: Tue Jan 30 18:08:34 CET 2024
User: diatiterra
Spectrometer: HDX00911
Trigger mode: 0
Integration Time (sec): 6,000000E-3
Scans to average: 3
Nonlinearity correction enabled: true
Boxcar width: 0
Storing dark spectrum: false
XAxis mode: Wavelengths
Number of Pixels in Spectrum: 2068
>>>>>Begin Spectral Data<<<<<
194,468	144,45
195,025	106,9
195,581	103,56
196,138	108,55
196,694	97,73
197,251	79,84
197,807	80,05
198,363	77,15
198,919	77,62
199,474	83,62
200,03	75,68
200,586	71,51
201,141	74,28
201,696	72,24
202,251	74,94
202,806	74,74
203,361	74
203,916	68,46
204,471	78,56
205,025	69,02
205,58	76,77
206,134	78,27
206,688	70,87
207,242	67,76
207,796	73,98
208,35	75,34
208,904	70,88
209,457	73,8
210,011	75,95
210,564	70,88
211,117	77,05
211,67	75,45
212,223	78,04
212,776	77,52
213,329	76,83
213,881	73,37
214,434	71,5
214,986	80,3
215,538	77,23
216,09	79,5
216,642	75,51
217,194	71,8
217,746	78,45
218,297	71,3
218,849	81,33
219,4	79,71
219,951	78,51
220,502	76,91
221,053	74,32
221,604	74,3
222,155	72,89
222,705	76,92
223,256	77,58
223,806	72
224,356	77,4
224,906	76,86
225,456	74,99
226,006	73,48
226,556	71,86
227,106	82,7
227,655	76,5
228,204	77,15
228,754	78,24
229,303	75,19
229,852	85,22
230,401	76,25
230,949	79,96
231,498	73,55
232,047	74,99
232,595	80,95
233,143	78,82
233,691	73,55
234,239	72,97
234,787	78,11
235,335	82,74
235,883	69,69
236,43	74,12
236,978	72,56
237,525	79,87
238,072	70,7
238,619	79,57
239,166	69,69
239,713	75,44
240,26	75,8
240,806	72,03
241,353	76,7
241,899	73,04
242,445	79,7
242,991	73,09
243,537	80,76
244,083	74,23
244,629	76,16
245,174	77,85
245,72	78,46
246,265	80,25
246,81	82,13
247,355	76,45
247,9	80,09
248,445	79,87
248,99	80,66
249,534	76,34
250,079	82,39
250,623	73,14
251,168	77,68
251,712	71,76
252,256	71,68
252,8	78,72
253,343	76
253,887	72,32
254,43	83,82
254,974	82,97
255,517	79,65
256,06	80,28
256,603	77,83
257,146	79,09
257,689	81,7
258,232	76,84
258,774	76,61
259,317	79,33
259,859	76,95
260,401	87,71
260,943	79,66
261,485	74,45
262,027	77,56
262,569	76,78
263,11	72,48
263,652	81,54
264,193	80,1
264,734	79,32
265,275	73,73
265,816	81,68
266,357	76,66
266,898	74,03
267,438	77,58
267,979	85,28
268,519	77,54
269,059	81,19
269,6	78,23
270,14	80,42
270,68	77,32
271,219	82,93
271,759	82,9
272,298	74,51
272,838	79,74
273,377	75
273,916	74,16
274,455	80
274,994	81,91
275,533	79,56
276,072	78,08
276,61	77,26
277,149	77,07
277,687	78,82
278,225	75,41
278,763	86,98
279,301	79,84
279,839	72,73
280,377	76,57
280,914	69,92
281,452	81,52
281,989	83,82
282,526	76,37
283,064	81,3
283,601	70,84
284,137	78,45
284,674	71,73
285,211	81,01
285,747	78,81
286,284	79,69
286,82	76,44
287,356	77,25
287,892	85,57
288,428	76,87
288,964	73,44
289,5	80,74
290,035	80,28
290,571	73,83
291,106	87,85
291,641	79,42
292,176	81,5
292,711	75,38
293,246	77,24
293,781	82,56
294,315	71,31
294,85	85,51
295,384	84,06
295,918	69,4
296,453	74,18
296,987	71,95
297,52	78,37
298,054	77,85
298,588	83,12
299,121	76,03
299,655	74,25
300,188	81,44
300,721	75,77
301,254	76,38
301,787	74,79
302,32	83,08
302,853	73,66
303,385	82
303,918	72,26
304,45	72,35
304,982	78,65
305,514	80,68
306,046	80
306,578	77,59
307,11	75,5
307,641	86,67
308,173	77,14
308,704	80,62
309,236	78,44
309,767	77,02
310,298	76,36
310,829	79,61
311,359	81,54
311,89	75,06
312,421	76,89
312,951	78,42
313,481	80,29
314,012	74,53
314,542	77,91
315,072	75,91
315,601	74,46
316,131	84,1
316,661	71,56
317,19	83,27
317,72	72,14
318,249	74,41
318,778	76,73
319,307	73,1
319,836	81,89
320,365	73,14
320,893	74,07
321,422	70,87
321,95	73,25
322,479	78,46
323,007	70,08
323,535	73,23
324,063	74,79
324,591	81,15
325,118	73,33
325,646	75,49
326,173	78,34
326,701	76,48
327,228	76,01
327,755	75,39
328,282	71,58
328,809	72,59
329,336	76,93
329,862	75
330,389	73,05
330,915	71,85
331,441	74,63
331,968	72,92
332,494	68,68
333,02	74,2
333,545	73,65
334,071	73,34
334,597	73,69
335,122	74,19
335,648	73,33
336,173	73,95
336,698	71,65
337,223	76,22
337,748	64,97
338,272	67,03
338,797	70,21
339,322	71,69
339,846	67,14
340,37	72,65
340,894	70,94
341,419	66,39
341,942	65,22
342,466	66,28
342,99	70,61
343,514	67,68
344,037	65,96
344,56	71,08
345,084	60,46
345,607	74,13
346,13	60,87
346,653	65,9
347,175	60,43
347,698	72,27
348,221	59,67
348,743	62,27
349,265	66,09
349,787	63,79
350,309	62,29
350,831	63,04
351,353	59,46
351,875	61,13
352,397	56,15
352,918	59,52
353,439	59,83
353,961	58,74
354,482	57,37
355,003	59,08
355,524	53,4
356,044	57,6
356,565	58,43
357,086	56,35
357,606	54,2
358,126	55,16
358,646	55,38
359,167	54,82
359,687	51,5
360,206	51,49
360,726	56,18
361,246	52,39
361,765	51,6
362,285	53,14
362,804	50,49
363,323	51,16
363,842	53,43
364,361	48,87
364,88	51,03
365,398	45,8
365,917	49,61
366,435	47,08
366,954	47,8
367,472	47,95
367,99	50,48
368,508	42,1
369,026	43,03
369,544	45,71
370,061	44,72
370,579	43,36
371,096	44,06
371,613	49,7
372,131	44,85
372,648	44,81
373,165	41,5
373,681	40,59
374,198	43,96
374,715	40,32
375,231	43,79
375,747	42,97
376,264	38,64
376,78	41,75
377,296	41,81
377,812	39,67
378,327	38,84
378,843	35,87
379,359	36,95
379,874	40,76
380,389	34,46
380,905	36,12
381,42	35
381,935	34,19
382,449	32,37
382,964	30,94
383,479	32,38
383,993	31,15
384,508	30,62
385,022	29,46
385,536	32,45
386,05	30,54
386,564	30,98
387,078	30,36
387,592	28,89
388,105	27,01
388,619	29,34
389,132	25,81
389,645	26,76
390,158	24,64
390,671	25,59
391,184	24,83
391,697	23,88
392,21	23,75
392,722	23,78
393,235	24,62
393,747	24,2
394,259	23,57
394,771	25,2
395,283	23,06
395,795	23,22
396,307	22,87
396,818	22,41
397,33	22,54
397,841	20,88
398,353	21,53
398,864	21,91
399,375	21,27
399,886	20,28
400,397	17,69
400,907	17,59
401,418	16,66
401,928	19,12
402,439	18,16
402,949	16,95
403,459	16,01
403,969	17,49
404,479	15,69
404,989	15,44
405,498	14,92
406,008	14,4
406,517	14,8
407,027	13,57
407,536	13,18
408,045	11,95
408,554	12,12
409,063	10,73
409,572	11,29
410,08	11,09
410,589	11,06
411,097	10,73
411,606	9,87
412,114	9,47
412,622	9,32
413,13	9,36
413,638	8,82
414,145	8,59
414,653	8,04
415,16	7,6
415,668	7,97
416,175	7,47
416,682	7,22
417,189	7,84
417,696	7,11
418,203	7,06
418,71	7,16
419,216	7,06
419,723	6,38
420,229	6,48
420,735	6,41
421,242	6,19
421,748	5,91
422,254	6,32
422,759	6,33
423,265	5,87
423,771	5,99
424,276	5,77
424,781	5,9
425,287	5,6
425,792	5,64
426,297	5,64
426,802	5,8
427,306	5,66
427,811	5,88
428,316	5,53
428,82	5,46
429,324	5,31
429,829	4,9
430,333	5,14
430,837	5,28
431,34	4,92
431,844	5,29
432,348	5,03
432,851	4,88
433,355	4,87
433,858	4,74
434,361	4,98
434,864	4,76
435,367	4,63
435,87	4,76
436,373	4,65
436,876	4,4
437,378	4,65
437,88	4,52
438,383	4,61
438,885	4,77
439,387	4,69
439,889	4,56
440,391	4,52
440,892	4,29
441,394	4,52
441,896	4,71
442,397	4,5
442,898	4,37
443,399	4,18
443,9	4,47
444,401	4,61
444,902	4,35
445,403	4,2
445,903	4,33
446,404	4,19
446,904	4,37
447,405	4,3
447,905	4,28
448,405	4,65
448,905	4,57
449,404	4,32
449,904	4,33
450,404	4,27
450,903	4,36
451,403	4,56
451,902	4,34
452,401	4,25
452,9	4,35
453,399	4,39
453,898	4,4
454,396	4,39
454,895	4,53
455,393	4,35
455,892	4,44
456,39	4,41
456,888	4,36
457,386	4,39
457,884	4,23
458,382	4,26
458,879	4,26
459,377	4,34
459,874	4,36
460,372	4,27
460,869	4,2
461,366	4,3
461,863	4,33
462,36	4,43
462,857	4,46
463,353	4,28
463,85	4,3
464,346	4,31
464,843	4,2
465,339	4,32
465,835	4,15
466,331	4,29
466,827	4,13
467,323	4,15
467,818	4,21
468,314	4,06
468,809	4,2
469,305	4,27
469,8	4,1
470,295	3,89
470,79	4,19
471,285	4,11
471,78	4,06
472,274	4,13
472,769	4,14
473,263	4,09
473,758	4,09
474,252	4,05
474,746	4,06
475,24	4,15
475,734	4,11
476,228	4,07
476,721	4,07
477,215	4,19
477,708	4,23
478,202	4,16
478,695	4,08
479,188	4,07
479,681	4,1
480,174	4,06
480,667	4,01
481,159	4,33
481,652	4,17
482,144	4,11
482,637	4,37
483,129	4,09
483,621	4,33
484,113	4,26
484,605	4,12
485,097	4,11
485,588	4,02
486,08	4,22
486,571	4,23
487,063	4,14
487,554	4,12
488,045	4,19
488,536	4,34
489,027	4,23
489,518	4,36
490,008	4,34
490,499	4,31
490,989	4,18
491,48	4,37
491,97	4,37
492,46	4,29
492,95	4,38
493,44	4,36
493,93	4,43
494,419	4,41
494,909	4,57
495,398	4,58
495,888	4,66
496,377	4,62
496,866	4,81
497,355	4,66
497,844	4,76
498,333	4,73
498,821	5,01
499,31	4,88
499,798	5,02
500,287	4,91
500,775	4,98
501,263	5,25
501,751	5,29
502,239	5,26
502,727	5,6
503,215	5,64
503,702	5,71
504,19	5,79
504,677	5,91
505,164	6,04
505,651	6,32
506,139	6,27
506,625	6,31
507,112	6,59
507,599	6,82
508,086	6,77
508,572	7,2
509,058	7,19
509,545	7,32
510,031	7,51
510,517	7,67
511,003	7,99
511,489	7,95
511,974	8,38
512,46	8,51
512,946	8,81
513,431	9
513,916	9,14
514,401	9,32
514,887	9,48
515,371	10,03
515,856	9,98
516,341	10,39
516,826	10,67
517,31	10,93
517,795	11,19
518,279	11,52
518,763	11,84
519,247	12,11
519,731	12,37
520,215	12,75
520,699	13,06
521,182	13,09
521,666	13,6
522,149	13,8
522,633	14,05
523,116	14,28
523,599	14,7
524,082	15,2
524,565	15,51
525,048	15,49
525,53	15,91
526,013	15,98
526,495	16,4
526,978	16,59
527,46	16,59
527,942	17,06
528,424	17,22
528,906	17,75
529,388	17,66
529,87	18,01
530,351	17,94
530,833	18,18
531,314	18,32
531,795	18,67
532,277	18,84
532,758	18,94
533,238	19,02
533,719	19,09
534,2	19,22
534,681	19,37
535,161	19,63
535,642	19,68
536,122	19,64
536,602	19,7
537,082	19,88
537,562	19,83
538,042	20,04
538,522	20,11
539,001	20,23
539,481	20,38
539,96	20,41
540,44	20,33
540,919	20,42
541,398	20,4
541,877	20,42
542,356	20,75
542,835	20,67
543,313	20,59
543,792	20,94
544,27	20,67
544,749	20,82
545,227	20,9
545,705	21,01
546,183	21,19
546,661	20,84
547,139	20,94
547,616	20,82
548,094	21,08
548,571	20,88
549,049	21,19
549,526	21,27
550,003	21,11
550,48	21,13
550,957	21,26
551,434	21,17
551,911	21,1
552,387	21,21
552,864	21,48
553,34	21,32
553,817	21,08
554,293	21,28
554,769	21,45
555,245	21,19
555,721	21,18
556,197	21,24
556,672	21,34
557,148	21,24
557,623	21,05
558,099	21,16
558,574	20,91
559,049	20,83
559,524	20,8
559,999	20,91
560,474	20,77
560,948	20,78
561,423	20,63
561,897	20,34
562,372	20,37
562,846	20,45
563,32	20,08
563,794	20,25
564,268	19,85
564,742	19,71
565,216	19,6
565,69	19,77
566,163	19,4
566,636	19,21
567,11	19,11
567,583	18,93
568,056	18,96
568,529	18,59
569,002	18,57
569,475	18,38
569,947	18,05
570,42	17,92
570,892	17,68
571,365	17,63
571,837	17,22
572,309	17,49
572,781	17,07
573,253	16,75
573,725	16,72
574,197	16,34
574,668	16,35
575,14	16,19
575,611	16,02
576,082	15,84
576,554	15,75
577,025	15,55
577,496	15,6
577,967	15,53
578,437	15,27
578,908	15,09
579,379	15,05
579,849	14,8
580,319	14,67
580,79	14,7
581,26	14,56
581,73	14,21
582,2	14,22
582,669	14,22
583,139	14,08
583,609	13,94
584,078	13,86
584,548	13,76
585,017	13,83
585,486	13,65
585,955	13,57
586,424	13,45
586,893	13,46
587,362	13,24
587,83	13,29
588,299	13,08
588,767	12,95
589,236	12,8
589,704	12,99
590,172	12,87
590,64	12,65
591,108	12,68
591,576	12,57
592,043	12,55
592,511	12,57
592,978	12,54
593,446	12,41
593,913	12,29
594,38	12,33
594,847	12,26
595,314	12,15
595,781	12,22
596,248	12,19
596,715	12,04
597,181	11,96
597,647	11,93
598,114	11,95
598,58	12,03
599,046	11,83
599,512	11,8
599,978	11,82
600,444	11,81
600,91	11,69
601,375	11,77
601,841	11,61
602,306	11,73
602,771	11,76
603,236	11,52
603,702	11,62
604,167	11,49
604,631	11,37
605,096	11,41
605,561	11,29
606,025	11,32
606,49	11,24
606,954	11,2
607,418	11,09
607,882	10,94
608,347	10,91
608,81	10,79
609,274	10,7
609,738	10,66
610,202	10,51
610,665	10,51
611,128	10,49
611,592	10,35
612,055	10,23
612,518	10,19
612,981	9,98
613,444	9,99
613,907	9,78
614,369	9,78
614,832	9,76
615,294	9,68
615,757	9,63
616,219	9,52
616,681	9,43
617,143	9,3
617,605	9,22
618,067	9,14
618,529	9,12
618,99	9,1
619,452	9,15
619,913	9,11
620,375	8,9
620,836	8,92
621,297	8,84
621,758	8,82
622,219	8,72
622,68	8,77
623,14	8,64
623,601	8,56
624,061	8,51
624,522	8,61
624,982	8,57
625,442	8,57
625,902	8,5
626,362	8,43
626,822	8,61
627,282	8,44
627,742	8,43
628,201	8,49
628,661	8,4
629,12	8,34
629,579	8,33
630,038	8,41
630,497	8,44
630,956	8,41
631,415	8,35
631,874	8,28
632,332	8,39
632,791	8,23
633,249	8,2
633,708	8,21
634,166	8,2
634,624	8,02
635,082	8,06
635,54	7,99
635,998	7,95
636,455	7,82
636,913	7,76
637,37	7,64
637,828	7,58
638,285	7,55
638,742	7,41
639,199	7,36
639,656	7,33
640,113	7,22
640,57	6,99
641,027	6,95
641,483	6,84
641,94	6,76
642,396	6,78
642,852	6,54
643,309	6,43
643,765	6,42
644,221	6,28
644,676	6,16
645,132	6,1
645,588	5,96
646,043	5,91
646,499	5,81
646,954	5,72
647,409	5,74
647,864	5,64
648,319	5,51
648,774	5,39
649,229	5,33
649,684	5,31
650,139	5,33
650,593	5,31
651,047	5,25
651,502	5,13
651,956	5,12
652,41	5,12
652,864	5,06
653,318	5,01
653,772	4,89
654,225	5
654,679	4,93
655,133	4,88
655,586	4,9
656,039	4,84
656,492	4,83
656,946	4,8
657,399	4,72
657,851	4,65
658,304	4,68
658,757	4,56
659,209	4,56
659,662	4,51
660,114	4,49
660,567	4,4
661,019	4,36
661,471	4,34
661,923	4,35
662,375	4,25
662,826	4,23
663,278	4,21
663,73	4,13
664,181	4,16
664,632	4,04
665,084	4,08
665,535	4,06
665,986	4,06
666,437	4,02
666,888	3,97
667,338	4,06
667,789	4,07
668,24	4,08
668,69	4,09
669,14	4,12
669,591	4,18
670,041	4,2
670,491	4,15
670,941	4,2
671,391	4,26
671,84	4,34
672,29	4,33
672,74	4,42
673,189	4,48
673,638	4,51
674,088	4,65
674,537	4,7
674,986	4,74
675,435	4,82
675,883	4,88
676,332	4,88
676,781	5,04
677,229	5,15
677,678	5,24
678,126	5,3
678,574	5,36
679,022	5,5
679,47	5,61
679,918	5,64
680,366	5,8
680,814	5,93
681,261	5,94
681,709	6,07
682,156	6,22
682,604	6,2
683,051	6,3
683,498	6,43
683,945	6,5
684,392	6,61
684,839	6,65
685,286	6,79
685,732	6,85
686,179	6,97
686,625	7,07
687,071	7,21
687,518	7,34
687,964	7,45
688,41	7,57
688,856	7,76
689,301	7,98
689,747	8,12
690,193	8,33
690,638	8,74
691,084	9,04
691,529	9,37
691,974	9,58
692,419	10,07
692,864	10,53
693,309	10,87
693,754	11,26
694,199	11,8
694,643	12,26
695,088	12,8
695,532	13,33
695,977	13,86
696,421	14,4
696,865	14,91
697,309	15,46
697,753	16,19
698,197	16,59
698,64	17,15
699,084	17,62
699,527	18,42
699,971	18,93
700,414	19,56
700,857	20,09
701,3	20,68
701,743	21,23
702,186	21,95
702,629	22,31
703,072	22,97
703,515	23,51
703,957	23,95
704,399	24,54
704,842	25,07
705,284	25,73
705,726	26,13
706,168	26,67
706,61	27,27
707,052	27,67
707,494	28,19
707,935	28,61
708,377	29,27
708,818	29,83
709,26	30,25
709,701	30,73
710,142	31,03
710,583	31,52
711,024	31,99
711,465	32,61
711,905	32,78
712,346	33,36
712,787	33,74
713,227	34,32
713,667	34,81
714,108	35,46
714,548	35,57
714,988	35,97
715,428	36,57
715,868	36,87
716,307	37,15
716,747	37,71
717,186	38,04
717,626	38,51
718,065	39,03
718,504	39,06
718,944	39,68
719,383	39,9
719,822	40,42
720,261	40,52
720,699	41,13
721,138	41,2
721,576	41,59
722,015	41,9
722,453	42,35
722,892	42,68
723,33	42,94
723,768	43,24
724,206	43,75
724,644	43,82
725,081	44,15
725,519	44,17
725,957	44,41
726,394	44,91
726,832	44,96
727,269	45,54
727,706	45,6
728,143	45,79
728,58	45,97
729,017	46,15
729,454	46,68
729,89	46,5
730,327	46,65
730,764	46,93
731,2	47,26
731,636	47,42
732,072	47,56
732,509	47,74
732,945	47,74
733,38	48,05
733,816	47,95
734,252	48,15
734,688	48,32
735,123	48,25
735,559	48,84
735,994	48,6
736,429	48,67
736,864	49,09
737,299	48,75
737,734	49,28
738,169	49,08
738,604	49,42
739,038	49,54
739,473	49,4
739,907	49,65
740,342	49,54
740,776	49,51
741,21	49,71
741,644	49,81
742,078	49,98
742,512	49,95
742,946	50,03
743,379	49,87
743,813	50,02
744,246	49,97
744,68	50,11
745,113	50,05
745,546	50,11
745,979	50,27
746,412	50,2
746,845	50,17
747,278	50,26
747,711	50,13
748,143	50,22
748,576	50,2
749,008	50,21
749,441	50,03
749,873	50,21
750,305	50,12
750,737	50,04
751,169	50,12
751,601	50,19
752,032	50,06
752,464	50,11
752,896	49,95
753,327	50,02
753,758	50,1
754,19	49,92
754,621	50,24
755,052	50,21
755,483	49,99
755,914	50,04
756,344	50,27
756,775	50,11
757,206	50,18
757,636	49,9
758,066	49,94
758,497	50,26
758,927	49,93
759,357	49,79
759,787	50,03
760,217	49,86
760,647	49,65
761,076	50,03
761,506	49,78
761,935	49,57
762,365	49,7
762,794	49,81
763,223	49,44
763,653	49,72
764,082	49,93
764,51	49,74
764,939	49,62
765,368	49,63
765,797	49,6
766,225	49,71
766,654	49,48
767,082	49,51
767,51	49,61
767,938	49,31
768,367	49,54
768,795	49,26
769,222	49,61
769,65	49,52
770,078	49,52
770,505	49,25
770,933	49,39
771,36	49,48
771,788	49,32
772,215	49,46
772,642	49,14
773,069	49,16
773,496	49,21
773,923	49,09
774,349	49,29
774,776	49,42
775,203	49,21
775,629	48,95
776,055	49,21
776,482	49,14
776,908	49,38
777,334	49,07
777,76	49,08
778,186	48,96
778,611	49,22
779,037	49,1
779,463	49,03
779,888	49,1
780,314	49,16
780,739	49,27
781,164	49,11
781,589	49,18
782,014	48,97
782,439	49,31
782,864	49,15
783,289	49,24
783,713	49,13
784,138	48,88
784,562	49,03
784,987	49,03
785,411	48,92
785,835	48,93
786,259	48,91
786,683	49,11
787,107	48,99
787,531	48,93
787,954	48,86
788,378	49,1
788,802	49,09
789,225	49,15
789,648	49,07
790,071	49,05
790,495	48,79
790,918	49,2
791,34	49,18
791,763	48,82
792,186	48,95
792,609	49,02
793,031	48,98
793,454	48,88
793,876	48,99
794,298	49,06
794,721	48,8
795,143	49,04
795,565	48,79
795,986	48,83
796,408	48,88
796,83	48,9
797,252	48,93
797,673	48,76
798,094	48,67
798,516	48,9
798,937	48,9
799,358	48,82
799,779	48,91
800,2	48,76
800,621	48,97
801,042	48,72
801,462	48,82
801,883	48,95
802,303	48,69
802,724	48,68
803,144	49,01
803,564	48,65
803,984	48,95
804,404	48,84
804,824	49,13
805,244	49,17
805,664	49,09
806,084	48,86
806,503	48,93
806,923	48,67
807,342	48,65
807,761	48,66
808,18	48,72
808,599	48,77
809,018	48,73
809,437	48,86
809,856	48,71
810,275	48,85
810,693	48,62
811,112	48,81
811,53	48,64
811,949	48,87
812,367	48,81
812,785	48,86
813,203	48,95
813,621	48,84
814,039	48,99
814,457	48,73
814,874	48,9
815,292	48,92
815,709	48,79
816,127	48,73
816,544	48,93
816,961	48,74
817,378	48,99
817,795	48,96
818,212	48,95
818,629	48,86
819,046	48,86
819,462	48,72
819,879	48,78
820,295	48,69
820,712	48,59
821,128	48,52
821,544	48,48
821,96	48,66
822,376	48,59
822,792	48,68
823,208	48,66
823,624	48,92
824,039	48,81
824,455	48,78
824,87	48,65
825,286	48,78
825,701	48,8
826,116	48,53
826,531	48,6
826,946	48,79
827,361	48,63
827,776	48,57
828,19	48,57
828,605	48,55
829,02	48,75
829,434	48,3
829,848	48,83
830,263	48,75
830,677	48,74
831,091	48,72
831,505	48,69
831,919	48,55
832,332	48,29
832,746	48,57
833,16	48,5
833,573	48,5
833,987	48,42
834,4	48,5
834,813	48,41
835,226	48,57
835,639	48,48
836,052	48,49
836,465	48,73
836,878	48,77
837,29	48,66
837,703	48,65
838,116	48,65
838,528	48,43
838,94	48,71
839,352	48,5
839,765	48,59
840,177	48,49
840,589	48,41
841	48,31
841,412	48,54
841,824	48,29
842,235	48,24
842,647	48,41
843,058	48,57
843,47	48,61
843,881	48,52
844,292	48,48
844,703	48,64
845,114	48,53
845,525	48,69
845,935	48,71
846,346	48,38
846,757	48,58
847,167	48,59
847,577	48,62
847,988	48,51
848,398	48,2
848,808	48,13
849,218	48,43
849,628	48,51
850,038	48,52
850,448	48,45
850,857	48,59
851,267	48,5
851,676	48,69
852,086	48,68
852,495	48,33
852,904	48,61
853,313	48,52
853,722	48,46
854,131	48,3
854,54	48,25
854,949	48,48
855,357	48,48
855,766	48,31
856,174	48,09
856,583	48,26
856,991	48,43
857,399	48,5
857,807	48,64
858,215	48,27
858,623	48,88
859,031	48,54
859,439	48,55
859,846	48,42
860,254	48,4
860,661	48,6
861,069	48,22
861,476	48,54
861,883	48,26
862,29	48,21
862,697	48,31
863,104	48,23
863,511	48,35
863,918	48,16
864,325	48,29
864,731	48,09
865,138	48,19
865,544	48,27
865,95	48,13
866,357	48,32
866,763	48,44
867,169	48,31
867,575	48,43
867,98	48,5
868,386	48,38
868,792	48,69
869,197	48,69
869,603	48,18
870,008	48,2
870,414	48,62
870,819	48,28
871,224	48,15
871,629	48,24
872,034	48,27
872,439	48,21
872,844	48,32
873,248	48,47
873,653	48,41
874,057	48,32
874,462	48,27
874,866	48,11
875,27	48,48
875,674	48,66
876,078	48,53
876,482	48,45
876,886	48,34
877,29	47,92
877,694	47,9
878,097	48,04
878,501	48,14
878,904	48,18
879,308	48,11
879,711	48,23
880,114	48,44
880,517	48,17
880,92	48,41
881,323	48,76
881,726	48,19
882,128	48,26
882,531	48,47
882,934	48,04
883,336	48,15
883,738	48,46
884,141	48,43
884,543	48,34
884,945	48,5
885,347	48,26
885,749	48,09
886,151	48,28
886,552	48,39
886,954	48,02
887,355	48,01
887,757	47,94
888,158	48,36
888,56	48,37
888,961	48,3
889,362	48,4
889,763	48,04
890,164	48,36
890,565	48,29
890,965	48,27
891,366	48,48
891,767	48,49
892,167	48,34
892,567	48,38
892,968	48,4
893,368	48,19
893,768	47,94
894,168	48,14
894,568	48,27
894,968	48,21
895,368	48,22
895,767	48,39
896,167	48,34
896,566	48,17
896,966	48,16
897,365	48,15
897,764	48,13
898,164	48,4
898,563	48,36
898,962	48,79
899,361	48,23
899,759	47,92
900,158	48,34
900,557	48,38
900,955	48,36
901,354	48,25
901,752	47,99
902,15	48,49
902,548	48,05
902,947	47,98
903,345	48,34
903,742	48,32
904,14	48,19
904,538	48,58
904,936	48,27
905,333	48,4
905,731	48,22
906,128	48,05
906,525	48,24
906,923	48,29
907,32	48,11
907,717	48,08
908,114	48,27
908,511	48,11
908,907	48,17
909,304	48,13
909,701	48,2
910,097	47,85
910,494	48,55
910,89	47,97
911,286	48,33
911,682	48,39
912,078	48,27
912,474	48,41
912,87	48,39
913,266	48,26
913,662	48,28
914,058	48,32
914,453	48,42
914,849	48,42
915,244	48,51
915,639	48,32
916,034	48,16
916,43	48,46
916,825	48,47
917,22	48,1
917,614	48,19
918,009	48,12
918,404	48,18
918,798	47,78
919,193	47,95
919,587	47,98
919,982	48,16
920,376	48,5
920,77	48,3
921,164	48,45
921,558	48,6
921,952	48,05
922,346	48,12
922,74	48,02
923,133	48,38
923,527	48,18
923,92	47,89
924,314	48,4
924,707	48,15
925,1	47,9
925,493	48,14
925,886	47,82
926,279	48
926,672	47,85
927,065	47,76
927,457	47,69
927,85	47,84
928,243	48,1
928,635	48,19
929,027	47,72
929,42	48,08
929,812	48,16
930,204	47,88
930,596	47,96
930,988	48,09
931,379	47,77
931,771	47,69
932,163	48,15
932,554	47,87
932,946	47,73
933,337	47,85
933,729	47,79
934,12	47,56
934,511	47,84
934,902	47,44
935,293	47,76
935,684	47,55
936,075	48,23
936,465	47,55
936,856	47,68
937,246	47,73
937,637	47,66
938,027	48,03
938,417	48,19
938,808	47,6
939,198	47,53
939,588	47,25
939,978	48,17
940,368	47,56
940,757	47,47
941,147	47,59
941,537	47,91
941,926	47,82
942,315	47,26
942,705	47,82
943,094	47,46
943,483	48,06
943,872	47,78
944,261	47,14
944,65	47,77
945,039	48,08
945,428	47,42
945,816	47,62
946,205	47,54
946,593	47,63
946,982	47,97
947,37	47,27
947,758	47,02
948,146	46,9
948,534	47,49
948,922	47,17
949,31	46,68
949,698	47,6
950,086	46,97
950,473	47,41
950,861	46,77
951,248	47,27
951,636	46,87
952,023	46,65
952,41	46,77
952,797	47,04
953,184	47,27
953,571	46,61
953,958	46,91
954,345	46,72
954,731	47,14
955,118	46,8
955,505	47,25
955,891	47,03
956,277	46,83
956,664	46,58
957,05	46,42
957,436	46,6
957,822	46,55
958,208	46,55
958,594	46,6
958,979	46,44
959,365	46,47
959,751	46,66
960,136	46,66
960,522	46,83
960,907	46,24
961,292	46,28
961,677	46,6
962,062	46,55
962,447	47
962,832	46,74
963,217	46,52
963,602	46,54
963,986	46,49
964,371	46,29
964,756	46,44
965,14	46,66
965,524	46,28
965,908	46,46
966,293	46,04
966,677	46,31
967,061	46,59
967,445	46,39
967,828	46,82
968,212	46,51
968,596	46,75
968,979	46,48
969,363	46,76
969,746	46,43
970,129	46,48
970,513	46,05
970,896	46,29
971,279	46,48
971,662	46,73
972,045	46,13
972,428	45,83
972,81	46,17
973,193	46,45
973,575	46,54
973,958	46,74
974,34	46,13
974,723	46,3
975,105	46,3
975,487	46,49
975,869	46,41
976,251	46,56
976,633	46,86
977,015	46,27
977,396	46,31
977,778	46,42
978,16	46,13
978,541	46,22
978,922	46,46
979,304	46,42
979,685	46,69
980,066	46,49
980,447	46,24
980,828	46,13
981,209	46,68
981,59	46,62
981,97	46,51
982,351	46,61
982,732	46,73
983,112	46,28
983,493	46,82
983,873	46,71
984,253	46,41
984,633	46,55
985,013	46,19
985,393	46,53
985,773	46,23
986,153	46,58
986,533	46,7
986,912	46,8
987,292	46,51
987,671	47,05
988,051	46,84
988,43	46,59
988,809	46,57
989,188	47,58
989,567	46,01
989,946	46,46
990,325	46,11
990,704	46,85
991,083	46,68
991,461	46,32
991,84	46,6
992,218	46,61
992,597	47,15
992,975	46,52
993,353	46,97
993,732	46,74
994,11	46,87
994,488	47,3
994,866	46,75
995,243	47,34
995,621	47,04
995,999	46,62
996,376	47,17
996,754	46,59
997,131	46,56
997,509	46,97
997,886	46,93
998,263	46,85
998,64	46,93
999,017	46,97
999,394	47,27
999,771	47,02
1000,148	47
1000,524	47,24
1000,901	47,36
1001,277	47,72
1001,654	46,97
1002,03	47,7
1002,406	46,9
1002,783	47,33
1003,159	46,74
1003,535	47,29
1003,911	47,25
1004,286	47,55
1004,662	46,77
1005,038	47,38
1005,414	47,21
1005,789	47,23
1006,164	46,92
1006,54	47,49
1006,915	46,93
1007,29	47,38
1007,665	47,5
1008,04	47,48
1008,415	47,19
1008,79	47,79
1009,165	47,8
1009,54	47,59
1009,914	47,66
1010,289	47,86
1010,663	47,43
1011,038	48,29
1011,412	47,73
1011,786	48,01
1012,16	47,47
1012,535	48,01
1012,909	47,62
1013,282	47,7
1013,656	47,84
1014,03	47,76
1014,404	47,75
1014,777	47,77
1015,151	47,97
1015,524	48,63
1015,897	47,74
1016,271	48,52
1016,644	47,93
1017,017	47,8
1017,39	47,85
1017,763	48,17
1018,136	48,1
1018,508	47,8
1018,881	48,27
1019,254	47,59
1019,626	47,82
1019,999	47,65
1020,371	47,34
1020,743	47,89
1021,116	48,19
1021,488	47,8
1021,86	48
1022,232	48,54
1022,604	48,1
1022,975	48,4
1023,347	48
1023,719	48,6
1024,09	48,58
1024,462	48,69
1024,833	48,17
1025,204	48,68
1025,576	48,26
1025,947	48,43
1026,318	48,86
1026,689	48,13
1027,06	48,48
1027,431	48,12
1027,801	48,79
1028,172	48,84
1028,543	48,58
1028,913	48,5
1029,284	48,93
1029,654	48,87
1030,024	48,79
1030,394	48,38
1030,764	48,83
1031,135	48,72
1031,504	48,6
1031,874	48,53
1032,244	49,33
1032,614	49,04
1032,983	48,39
1033,353	48,94
1033,722	48,48
1034,092	48,34
1034,461	48,84
1034,83	49,48
1035,2	49,52
1035,569	49,05
1035,938	48,27
1036,307	49,32
1036,675	49,34
1037,044	48,55
1037,413	48,91
1037,781	48,88
1038,15	48,76
1038,518	49,14
1038,887	49,74
1039,255	49,52
1039,623	49,51
1039,991	49,3
1040,359	49,44
1040,727	49,26
1041,095	49,55
1041,463	49,34
1041,831	48,81
1042,198	50,26
1042,566	49,22
1042,933	48,68
1043,301	49,63
1043,668	49,1
1044,035	49,55
1044,402	49,58
1044,77	49,75
1045,137	50
1045,503	49,57
1045,87	49,3
1046,237	49,18
1046,604	49,97
1046,97	49,26
1047,337	49,63
1047,703	50,55
1048,07	49,69
1048,436	50,51
1048,802	49,79
1049,168	50,19
1049,534	50,91
1049,9	49,29
1050,266	49,88
1050,632	49,68
1050,998	50,38
1051,364	50,26
1051,729	50,22
1052,095	49,93
1052,46	50,43
1052,825	50,46
1053,191	49,83
1053,556	51,03
1053,921	50,42
1054,286	49,67
1054,651	49,95
1055,016	49,89
1055,381	50,02
1055,745	50,56
1056,11	50,29
1056,475	51,55
1056,839	50,5
1057,203	50,54
1057,568	51,2
1057,932	50,14
1058,296	51,04
1058,66	50,76
1059,024	51,43
1059,388	50,4
1059,752	50,82
1060,116	50,73
1060,48	51,01
1060,843	50,89
1061,207	50,66
1061,57	53,16
1061,934	52,15
1062,297	51,56
1062,66	50,71
1063,023	50,85
1063,386	50,59
1063,749	51,21
1064,112	50,96
1064,475	51,06
1064,838	51,79
1065,201	51,29
1065,563	50,65
1065,926	51,58
1066,288	51,95
1066,651	51,46
1067,013	51,27
1067,375	51,42
1067,737	50,81
1068,099	51,11
1068,461	50,95
1068,823	51,36
1069,185	51,82
1069,547	52,09
1069,909	51,81
1070,27	50,72
1070,632	51,33
1070,993	51,09
1071,355	51,4
1071,716	50,52
1072,077	50,97
1072,438	51,75
1072,799	50,75
1073,16	51,83
1073,521	52,76
1073,882	51,23
1074,243	52,13
1074,603	52,16
1074,964	52,09
1075,325	51,13
1075,685	53,18
1076,045	52,52
1076,406	51,72
1076,766	50,81
1077,126	51,45
1077,486	52,17
1077,846	51,88
1078,206	52,22
1078,566	50,91
1078,925	51,59
1079,285	51,91
1079,645	52,35
1080,004	52,03
1080,364	52,13
1080,723	52,58
1081,082	51,31
1081,442	52,27
1081,801	51,64
1082,16	52,5
1082,519	52,5
1082,878	52,76
1083,237	52,5
1083,595	52,06
1083,954	52,27
1084,313	51,94
1084,671	52,86
1085,03	52,64
1085,388	52,58
1085,746	51,92
1086,104	51,53
1086,463	52,68
1086,821	52,33
1087,179	51,86
1087,537	52,81
1087,894	52,77
1088,252	53,83
1088,61	54,32
1088,967	52,13
1089,325	54,39
1089,682	52,54
1090,04	50,86
1090,397	53
1090,754	54,56
1091,111	53,49
1091,469	52,5
1091,826	52,92
1092,182	53,29
1092,539	52,62
1092,896	52,93
1093,253	52,59
1093,609	52,71
1093,966	52,67
1094,322	53,94
1094,679	52,31
1095,035	54,42
1095,391	54,66
1095,748	52,08
1096,104	53,39
1096,46	52,82
1096,816	54,02
1097,171	54,28
1097,527	55,5
1097,883	54,39
1098,239	55,99
1098,594	53,6
1098,95	54,16
1099,305	53,3
1099,66	54,64
1100,016	54,88
1100,371	53,72
1100,726	54,39
1101,081	53,82
1101,436	52,86
1101,791	55,37
1102,146	53,4
1102,5	53,69
1102,855	54,74
1103,21	54,39
1103,564	55,66
1103,918	54,38
1104,273	54,09
1104,627	55,52
1104,981	55,09
1105,335	54,34
1105,69	55,07
1106,043	55,7
1106,397	55,22
1106,751	56,02
1107,105	55,1
1107,459	54,27
1107,812	54,41
1108,166	56,8
1108,519	54,82
1108,873	57,02
1109,226	55,33
1109,579	58,79
1109,932	57,09
1110,285	55,02
1110,638	58,15
1110,991	57,03
1111,344	54,2
1111,697	54,21
1112,05	56,77
1112,402	57,02
1112,755	56,43
1113,107	57,57
1113,46	56,79
1113,812	57,88
1114,164	58,67
1114,517	55,97
1114,869	111,87
1115,221	106,87
1115,573	107,76
1115,924	106,31
