Data from D1__Relative__0__00027.txt Node

Date: Thu Feb 01 16:18:37 CET 2024
User: diatiterra
Spectrometer: HDX00911
Trigger mode: 0
Integration Time (sec): 6,000000E-3
Scans to average: 2
Nonlinearity correction enabled: false
Boxcar width: 0
Storing dark spectrum: false
XAxis mode: Wavelengths
Number of Pixels in Spectrum: 2068
>>>>>Begin Spectral Data<<<<<
194,468	144,62
195,025	72,22
195,581	96,97
196,138	101,47
196,694	79,12
197,251	84,92
197,807	56,98
198,363	59,17
198,919	56,52
199,474	61,78
200,03	75
200,586	69,62
201,141	59,79
201,696	66,47
202,251	55,8
202,806	58,62
203,361	64,48
203,916	58,92
204,471	57,61
205,025	66,49
205,58	53,76
206,134	62,23
206,688	61,26
207,242	57,56
207,796	57,58
208,35	65,12
208,904	57,06
209,457	58,82
210,011	58,28
210,564	64,52
211,117	69,93
211,67	65,73
212,223	64,95
212,776	57,75
213,329	59,89
213,881	56,48
214,434	67
214,986	71,69
215,538	62,5
216,09	60,94
216,642	70,48
217,194	60,59
217,746	66,86
218,297	63,89
218,849	69,19
219,4	52,78
219,951	70,86
220,502	66,27
221,053	61,9
221,604	64,5
222,155	70,05
222,705	59,06
223,256	56,74
223,806	63,43
224,356	56,19
224,906	57,58
225,456	45,45
226,006	54,64
226,556	56,76
227,106	67,68
227,655	59,16
228,204	58,76
228,754	72,99
229,303	63,53
229,852	60,56
230,401	59,88
230,949	62,15
231,498	70,21
232,047	59,44
232,595	56,9
233,143	64,74
233,691	56,59
234,239	64,48
234,787	59,88
235,335	69,19
235,883	59,47
236,43	63,87
236,978	55,32
237,525	54,27
238,072	54,44
238,619	66,46
239,166	55,88
239,713	62,01
240,26	71,93
240,806	68,1
241,353	63,37
241,899	62,09
242,445	60,36
242,991	54,59
243,537	64,05
244,083	59,89
244,629	58,5
245,174	56,32
245,72	55,31
246,265	56,54
246,81	61,93
247,355	57,69
247,9	65,29
248,445	59,87
248,99	51,67
249,534	62,36
250,079	66,27
250,623	52,17
251,168	54,6
251,712	68,24
252,256	65,84
252,8	51,98
253,343	56,04
253,887	59,56
254,43	63,64
254,974	54,75
255,517	55,93
256,06	54,55
256,603	57,3
257,146	54,7
257,689	52,38
258,232	57,14
258,774	60,12
259,317	52,75
259,859	58,64
260,401	46,07
260,943	63,69
261,485	59,46
262,027	59,26
262,569	60,26
263,11	63,84
263,652	57,14
264,193	56,25
264,734	55,56
265,275	60,94
265,816	55,68
266,357	62,43
266,898	51,01
267,438	67,72
267,979	55,68
268,519	59,52
269,059	68,07
269,6	63,39
270,14	53,57
270,68	54,11
271,219	55,17
271,759	71,15
272,298	64,86
272,838	52,05
273,377	61,45
273,916	76,51
274,455	63,59
274,994	62,22
275,533	56,29
276,072	66,47
276,61	67,46
277,149	65,88
277,687	58,43
278,225	71,76
278,763	63,58
279,301	63,3
279,839	68,62
280,377	57,14
280,914	57,22
281,452	62,57
281,989	54,71
282,526	81,65
283,064	57,5
283,601	61,24
284,137	70,55
284,674	68,54
285,211	55,91
285,747	63,32
286,284	50,59
286,82	50,52
287,356	48,45
287,892	65,19
288,428	55,17
288,964	54,84
289,5	67,63
290,035	61,36
290,571	53,44
291,106	63,48
291,641	58,14
292,176	58,06
292,711	57,56
293,246	50,54
293,781	61,88
294,315	53,06
294,85	55,48
295,384	64,16
295,918	53,19
296,453	57,3
296,987	57,38
297,52	59,24
298,054	49,43
298,588	63,41
299,121	56,42
299,655	62,94
300,188	62,67
300,721	64,6
301,254	57,67
301,787	58,06
302,32	62,18
302,853	69,27
303,385	54,35
303,918	63,43
304,45	58,67
304,982	66,1
305,514	56,38
306,046	54,35
306,578	55,08
307,11	62,43
307,641	68,13
308,173	55,62
308,704	62,5
309,236	57,87
309,767	60,53
310,298	61,01
310,829	58,5
311,359	48,79
311,89	53,8
312,421	50,81
312,951	65,71
313,481	64,71
314,012	48,96
314,542	57,45
315,072	55,25
315,601	62,99
316,131	55,85
316,661	59,66
317,19	51,45
317,72	56,02
318,249	63,89
318,778	59,86
319,307	61,98
319,836	65,54
320,365	62,43
320,893	60,62
321,422	57,74
321,95	54,17
322,479	66,67
323,007	70,79
323,535	67,05
324,063	59,32
324,591	50,79
325,118	62,37
325,646	63,83
326,173	72,68
326,701	50,26
327,228	56,54
327,755	60,91
328,282	59,78
328,809	64,12
329,336	58,21
329,862	56
330,389	46,91
330,915	62,69
331,441	54,39
331,968	63,48
332,494	61,22
333,02	56,98
333,545	57,67
334,071	50,26
334,597	58,43
335,122	53,19
335,648	46,63
336,173	53,51
336,698	55,32
337,223	47,59
337,748	47,76
338,272	44,15
338,797	52,46
339,322	54,05
339,846	57,53
340,37	48,63
340,894	50,75
341,419	58,05
341,942	50,79
342,466	59,07
342,99	42,93
343,514	50,49
344,037	55,32
344,56	53,11
345,084	53,73
345,607	59,71
346,13	50,7
346,653	53,27
347,175	45,45
347,698	61,31
348,221	52,58
348,743	47,48
349,265	46,31
349,787	41,95
350,309	46,15
350,831	47,7
351,353	46,92
351,875	50,61
352,397	40,95
352,918	50,42
353,439	43,88
353,961	45,67
354,482	47,66
355,003	46,5
355,524	40,74
356,044	45,64
356,565	44,72
357,086	34,46
357,606	39,57
358,126	36,4
358,646	41,26
359,167	42,17
359,687	46,84
360,206	40,37
360,726	44,36
361,246	42,64
361,765	42,75
362,285	44,98
362,804	48,56
363,323	38,65
363,842	40,85
364,361	30,66
364,88	40,45
365,398	46,67
365,917	34,26
366,435	44
366,954	36,48
367,472	36,08
367,99	36,69
368,508	37,67
369,026	41,67
369,544	37,74
370,061	33,83
370,579	42,59
371,096	30,03
371,613	41,03
372,131	37,39
372,648	33,62
373,165	36,44
373,681	34,94
374,198	34,38
374,715	42,45
375,231	34,68
375,747	34,13
376,264	34,46
376,78	35,03
377,296	33,65
377,812	34,68
378,327	34,34
378,843	36,83
379,359	32,78
379,874	33,25
380,389	32,05
380,905	31,61
381,42	32,44
381,935	34,12
382,449	30,58
382,964	26,2
383,479	29,22
383,993	32,09
384,508	29,89
385,022	29,01
385,536	29,38
386,05	28,63
386,564	32,5
387,078	30,65
387,592	26,37
388,105	26,94
388,619	26,24
389,132	26,09
389,645	24
390,158	25,88
390,671	24,85
391,184	24,26
391,697	26,69
392,21	23,21
392,722	25,9
393,235	23,12
393,747	24,18
394,259	25,92
394,771	24,42
395,283	25,33
395,795	23,84
396,307	21,36
396,818	20,95
397,33	20,72
397,841	24,09
398,353	19,52
398,864	20,63
399,375	21,49
399,886	17,85
400,397	20,4
400,907	18,52
401,418	17,87
401,928	18,52
402,439	18,78
402,949	18,01
403,459	16,68
403,969	17,71
404,479	16,65
404,989	16,04
405,498	15,35
406,008	14,73
406,517	15,58
407,027	13,66
407,536	13,89
408,045	12,9
408,554	13,72
409,063	12,64
409,572	12,09
410,08	11,14
410,589	11,2
411,097	10,46
411,606	10,19
412,114	11,33
412,622	9,7
413,13	10,15
413,638	8,88
414,145	9,26
414,653	8,2
415,16	8,67
415,668	8,67
416,175	8,14
416,682	7,6
417,189	8,82
417,696	8,27
418,203	8,08
418,71	7,15
419,216	7,59
419,723	8,08
420,229	7,43
420,735	7,75
421,242	6,98
421,748	7,14
422,254	7,23
422,759	6,58
423,265	6,79
423,771	6,97
424,276	7,11
424,781	6,95
425,287	6,24
425,792	7,43
426,297	6,91
426,802	6,5
427,306	6,57
427,811	5,82
428,316	6,68
428,82	6,22
429,324	6,08
429,829	6,25
430,333	5,97
430,837	6,05
431,34	6,24
431,844	6,11
432,348	5,7
432,851	5,69
433,355	5,74
433,858	6,16
434,361	6,23
434,864	6,01
435,367	5,92
435,87	5,29
436,373	6,19
436,876	6,08
437,378	5,72
437,88	5,52
438,383	5,77
438,885	6,24
439,387	5,53
439,889	5,38
440,391	5,37
440,892	5,42
441,394	5,37
441,896	5,44
442,397	5,8
442,898	5,49
443,399	5,39
443,9	5,45
444,401	6,01
444,902	5,63
445,403	5,29
445,903	5,27
446,404	5,88
446,904	5,38
447,405	5,65
447,905	5,67
448,405	5,36
448,905	5,56
449,404	5,42
449,904	5,44
450,404	5,56
450,903	5,42
451,403	5,4
451,902	5,74
452,401	5,18
452,9	5,83
453,399	5,74
453,898	5,17
454,396	5,57
454,895	5,59
455,393	5,65
455,892	5,92
456,39	5,6
456,888	5,66
457,386	5,52
457,884	5,51
458,382	5,6
458,879	5,64
459,377	5,63
459,874	5,87
460,372	5,8
460,869	5,58
461,366	5,97
461,863	5,73
462,36	5,71
462,857	5,53
463,353	5,43
463,85	5,58
464,346	5,62
464,843	5,78
465,339	5,36
465,835	5,77
466,331	5,77
466,827	5,53
467,323	5,49
467,818	5,34
468,314	5,64
468,809	5,49
469,305	5,39
469,8	5,52
470,295	5,67
470,79	5,44
471,285	5,8
471,78	5,84
472,274	5,64
472,769	5,51
473,263	5,81
473,758	5,19
474,252	5,78
474,746	5,44
475,24	5,65
475,734	5,53
476,228	5,34
476,721	5,75
477,215	5,59
477,708	5,63
478,202	5,79
478,695	5,79
479,188	5,79
479,681	5,74
480,174	5,45
480,667	5,77
481,159	5,7
481,652	5,85
482,144	5,48
482,637	5,88
483,129	5,72
483,621	5,53
484,113	5,54
484,605	5,95
485,097	6,02
485,588	5,6
486,08	5,93
486,571	5,79
487,063	5,73
487,554	5,91
488,045	6,02
488,536	5,72
489,027	5,75
489,518	5,84
490,008	6,12
490,499	5,69
490,989	5,79
491,48	6,16
491,97	6,09
492,46	6,04
492,95	6,11
493,44	6,73
493,93	6,25
494,419	6,31
494,909	6,25
495,398	6,52
495,888	6,18
496,377	6,56
496,866	6,43
497,355	6,61
497,844	6,6
498,333	6,88
498,821	6,93
499,31	6,83
499,798	6,85
500,287	7
500,775	7,15
501,263	7,02
501,751	6,96
502,239	7,71
502,727	7,55
503,215	7,82
503,702	7,67
504,19	7,69
504,677	7,83
505,164	8,25
505,651	8,02
506,139	8,23
506,625	8,41
507,112	8,41
507,599	8,52
508,086	8,69
508,572	8,93
509,058	9,15
509,545	9,19
510,031	9,82
510,517	9,82
511,003	9,61
511,489	10,17
511,974	10,24
512,46	10,5
512,946	10,49
513,431	10,98
513,916	11,32
514,401	11,27
514,887	11,86
515,371	11,83
515,856	11,96
516,341	12,51
516,826	12,74
517,31	12,54
517,795	13,31
518,279	13,75
518,763	13,5
519,247	13,76
519,731	13,95
520,215	14,63
520,699	14,92
521,182	15,29
521,666	15,43
522,149	15,55
522,633	16,05
523,116	16,11
523,599	16,82
524,082	17,01
524,565	17,19
525,048	17,56
525,53	17,96
526,013	18,07
526,495	18,15
526,978	18,25
527,46	18,76
527,942	18,76
528,424	19,13
528,906	19,11
529,388	19,48
529,87	19,46
530,351	20,45
530,833	20,21
531,314	20,36
531,795	20,81
532,277	20,95
532,758	20,83
533,238	20,52
533,719	21,03
534,2	21,23
534,681	21,1
535,161	21,19
535,642	21,66
536,122	21,79
536,602	21,93
537,082	21,56
537,562	22,01
538,042	21,49
538,522	22,67
539,001	22,25
539,481	22,09
539,96	22,66
540,44	22,48
540,919	22,08
541,398	22,24
541,877	22,93
542,356	22,54
542,835	22,25
543,313	22,92
543,792	22,88
544,27	22,68
544,749	22,3
545,227	22,63
545,705	22,88
546,183	22,45
546,661	22,73
547,139	22,88
547,616	23,19
548,094	22,84
548,571	23,06
549,049	23,29
549,526	23,26
550,003	23,22
550,48	23,24
550,957	23,24
551,434	23,18
551,911	23,12
552,387	23,36
552,864	23,36
553,34	23,24
553,817	23,39
554,293	23,18
554,769	23,54
555,245	23,74
555,721	23,49
556,197	23,43
556,672	23,13
557,148	23,49
557,623	22,99
558,099	23,48
558,574	23,04
559,049	23,09
559,524	23,03
559,999	23,14
560,474	22,83
560,948	22,54
561,423	22,3
561,897	22,81
562,372	22,73
562,846	22,57
563,32	22,57
563,794	22,27
564,268	22,18
564,742	22,17
565,216	22,13
565,69	22,09
566,163	21,78
566,636	21,8
567,11	21,47
567,583	21,4
568,056	21,24
568,529	21,08
569,002	21,02
569,475	21
569,947	20,54
570,42	20,38
570,892	20,3
571,365	19,95
571,837	20,28
572,309	19,25
572,781	19,84
573,253	19,6
573,725	19,39
574,197	18,93
574,668	18,6
575,14	18,8
575,611	18,7
576,082	18,47
576,554	18,52
577,025	18,12
577,496	18,02
577,967	18,28
578,437	17,49
578,908	17,71
579,379	17,56
579,849	17,42
580,319	17,29
580,79	17,14
581,26	17,18
581,73	17,02
582,2	16,6
582,669	16,7
583,139	16,5
583,609	16,74
584,078	16,35
584,548	16,2
585,017	16,04
585,486	16,1
585,955	16,37
586,424	15,83
586,893	15,76
587,362	15,7
587,83	15,96
588,299	15,57
588,767	15,53
589,236	15,61
589,704	15,33
590,172	15,43
590,64	15,4
591,108	15,21
591,576	15,28
592,043	15,12
592,511	14,86
592,978	14,91
593,446	15,01
593,913	14,79
594,38	14,8
594,847	14,9
595,314	14,92
595,781	14,69
596,248	14,6
596,715	14,51
597,181	14,89
597,647	14,55
598,114	14,74
598,58	14,49
599,046	14,78
599,512	14,3
599,978	14,44
600,444	14,4
600,91	14,36
601,375	14,52
601,841	14,3
602,306	14,49
602,771	14,36
603,236	14,23
603,702	14,15
604,167	13,97
604,631	14,06
605,096	14,03
605,561	14,09
606,025	13,97
606,49	13,83
606,954	13,7
607,418	13,71
607,882	13,71
608,347	13,57
608,81	13,71
609,274	13,41
609,738	13,35
610,202	13,63
610,665	13,25
611,128	13,37
611,592	13,14
612,055	12,84
612,518	12,98
612,981	13,02
613,444	12,48
613,907	12,9
614,369	12,65
614,832	12,42
615,294	12,41
615,757	12,25
616,219	12,36
616,681	12,28
617,143	11,99
617,605	12,2
618,067	12,04
618,529	11,91
618,99	11,84
619,452	11,85
619,913	11,73
620,375	11,86
620,836	11,84
621,297	11,55
621,758	11,62
622,219	11,65
622,68	11,49
623,14	11,42
623,601	11,34
624,061	11,5
624,522	11,31
624,982	11,38
625,442	11,03
625,902	11,51
626,362	11,26
626,822	11,31
627,282	11,34
627,742	10,95
628,201	11,15
628,661	11,27
629,12	11,31
629,579	11,13
630,038	11,02
630,497	10,99
630,956	11,09
631,415	10,93
631,874	10,99
632,332	10,97
632,791	10,87
633,249	11,05
633,708	10,94
634,166	10,65
634,624	10,72
635,082	10,79
635,54	10,59
635,998	10,59
636,455	10,35
636,913	10,21
637,37	10,14
637,828	10,23
638,285	10,35
638,742	9,99
639,199	9,91
639,656	9,94
640,113	9,69
640,57	9,64
641,027	9,55
641,483	9,33
641,94	9,29
642,396	9,23
642,852	9,07
643,309	8,86
643,765	8,93
644,221	8,76
644,676	8,73
645,132	8,61
645,588	8,52
646,043	8,62
646,499	8,38
646,954	8,26
647,409	8,2
647,864	8,14
648,319	8,09
648,774	8,02
649,229	7,89
649,684	7,95
650,139	7,83
650,593	7,89
651,047	7,64
651,502	7,46
651,956	7,55
652,41	7,66
652,864	7,6
653,318	7,55
653,772	7,44
654,225	7,43
654,679	7,55
655,133	7,26
655,586	7,53
656,039	7,36
656,492	7,28
656,946	7,33
657,399	7,11
657,851	7,24
658,304	7,25
658,757	6,96
659,209	6,96
659,662	6,95
660,114	6,83
660,567	6,71
661,019	6,65
661,471	6,71
661,923	6,71
662,375	6,67
662,826	6,49
663,278	6,46
663,73	6,26
664,181	6,38
664,632	6,37
665,084	6,34
665,535	6,25
665,986	6,2
666,437	6,31
666,888	6,21
667,338	6,19
667,789	6,21
668,24	6,2
668,69	6,08
669,14	6,19
669,591	6,16
670,041	6,24
670,491	6,22
670,941	6,17
671,391	6,35
671,84	6,16
672,29	6,31
672,74	6,44
673,189	6,52
673,638	6,57
674,088	6,53
674,537	6,58
674,986	6,66
675,435	6,7
675,883	6,72
676,332	6,81
676,781	6,88
677,229	7,08
677,678	7,12
678,126	7,04
678,574	7,19
679,022	7,29
679,47	7,5
679,918	7,68
680,366	7,54
680,814	7,62
681,261	7,83
681,709	7,85
682,156	7,94
682,604	8,14
683,051	8,36
683,498	8,25
683,945	8,43
684,392	8,45
684,839	8,7
685,286	8,68
685,732	8,87
686,179	8,93
686,625	9,12
687,071	9,31
687,518	9,49
687,964	9,56
688,41	9,66
688,856	9,99
689,301	10,14
689,747	10,38
690,193	10,58
690,638	10,79
691,084	11,1
691,529	11,51
691,974	11,88
692,419	12,11
692,864	12,58
693,309	13
693,754	13,45
694,199	13,76
694,643	14,23
695,088	14,88
695,532	15,36
695,977	15,66
696,421	16
696,865	16,87
697,309	17,2
697,753	17,73
698,197	18,12
698,64	19,09
699,084	19,33
699,527	19,7
699,971	20,2
700,414	20,81
700,857	21,45
701,3	21,98
701,743	22,24
702,186	22,76
702,629	23,25
703,072	23,8
703,515	24,51
703,957	24,64
704,399	25,2
704,842	25,61
705,284	26,32
705,726	26,89
706,168	27,2
706,61	27,85
707,052	28,02
707,494	28,8
707,935	29,15
708,377	29,46
708,818	30,12
709,26	30,45
709,701	30,64
710,142	31,18
710,583	31,52
711,024	31,67
711,465	32,22
711,905	32,81
712,346	33,08
712,787	33,3
713,227	34,04
713,667	34,45
714,108	34,85
714,548	35,27
714,988	35,47
715,428	35,96
715,868	36,21
716,307	36,59
716,747	36,67
717,186	37,36
717,626	37,41
718,065	38,21
718,504	38,27
718,944	38,59
719,383	38,56
719,822	38,9
720,261	39,1
720,699	39,68
721,138	39,97
721,576	40,11
722,015	40,59
722,453	40,81
722,892	41,11
723,33	41
723,768	41,57
724,206	41,53
724,644	42,02
725,081	42,11
725,519	42,26
725,957	42,41
726,394	42,56
726,832	43,2
727,269	43,3
727,706	42,9
728,143	43,59
728,58	43,53
729,017	43,88
729,454	43,95
729,89	44,31
730,327	44,44
730,764	44,54
731,2	44,63
731,636	44,98
732,072	44,74
732,509	45,1
732,945	45,43
733,38	45,07
733,816	45,11
734,252	45,31
734,688	45,56
735,123	45,81
735,559	45,67
735,994	45,73
736,429	45,87
736,864	45,9
737,299	46,08
737,734	46,25
738,169	46,23
738,604	45,91
739,038	45,95
739,473	45,99
739,907	46,5
740,342	46,26
740,776	46,33
741,21	46,11
741,644	46,26
742,078	46,24
742,512	46,27
742,946	46,39
743,379	46,41
743,813	46,21
744,246	45,97
744,68	46,27
745,113	46,33
745,546	46,78
745,979	46,39
746,412	46,45
746,845	46,56
747,278	46,48
747,711	46,27
748,143	46,41
748,576	46,36
749,008	46,41
749,441	46,41
749,873	46,4
750,305	46,4
750,737	45,85
751,169	46,1
751,601	46,36
752,032	46,34
752,464	46,01
752,896	45,96
753,327	46,02
753,758	45,81
754,19	46,07
754,621	45,93
755,052	45,97
755,483	45,59
755,914	45,46
756,344	45,95
756,775	45,9
757,206	45,79
757,636	45,63
758,066	45,52
758,497	45,79
758,927	45,32
759,357	45,58
759,787	45,62
760,217	45,8
760,647	45,23
761,076	45,04
761,506	45,47
761,935	45,4
762,365	45,39
762,794	45,44
763,223	45,4
763,653	44,87
764,082	44,95
764,51	44,68
764,939	45,13
765,368	45,51
765,797	44,9
766,225	44,89
766,654	44,95
767,082	45,03
767,51	44,5
767,938	44,64
768,367	44,61
768,795	44,83
769,222	44,56
769,65	44,65
770,078	44,97
770,505	44,67
770,933	44,56
771,36	44,57
771,788	44,79
772,215	44,68
772,642	44,54
773,069	44,65
773,496	44,77
773,923	44,45
774,349	44,57
774,776	44,42
775,203	44,35
775,629	44,36
776,055	44,27
776,482	44,36
776,908	44,25
777,334	44,19
777,76	44,08
778,186	44,22
778,611	43,94
779,037	44,39
779,463	44,2
779,888	44,13
780,314	44,02
780,739	44,18
781,164	44,26
781,589	44,03
782,014	43,74
782,439	44,16
782,864	44,21
783,289	44,16
783,713	44,16
784,138	43,99
784,562	43,93
784,987	44,11
785,411	44
785,835	43,99
786,259	44,08
786,683	43,74
787,107	43,62
787,531	44,32
787,954	43,47
788,378	43,7
788,802	44,08
789,225	43,78
789,648	43,89
790,071	43,78
790,495	43,49
790,918	43,75
791,34	44,01
791,763	43,71
792,186	43,7
792,609	43,6
793,031	43,87
793,454	43,82
793,876	43,91
794,298	43,89
794,721	43,55
795,143	43,71
795,565	43,63
795,986	44,06
796,408	43,63
796,83	43,83
797,252	43,78
797,673	43,84
798,094	43,69
798,516	44,22
798,937	43,6
799,358	43,58
799,779	43,55
800,2	43,54
800,621	43,56
801,042	43,97
801,462	43,37
801,883	43,34
802,303	43,79
802,724	43,52
803,144	43,6
803,564	43,19
803,984	43,87
804,404	43,37
804,824	43,85
805,244	43,29
805,664	43,23
806,084	43,89
806,503	43,5
806,923	43,48
807,342	43,2
807,761	43,28
808,18	43,59
808,599	43,33
809,018	43,33
809,437	43,82
809,856	43,1
810,275	43,54
810,693	43,59
811,112	43,2
811,53	43,42
811,949	43,43
812,367	43,63
812,785	43,33
813,203	43,31
813,621	43,31
814,039	43,38
814,457	43,59
814,874	43,1
815,292	43,41
815,709	43,51
816,127	43,79
816,544	43,18
816,961	42,96
817,378	43,43
817,795	43,38
818,212	43,16
818,629	43,51
819,046	43,48
819,462	43,25
819,879	43,26
820,295	43,2
820,712	43,19
821,128	43,1
821,544	43,05
821,96	42,97
822,376	43,32
822,792	43,23
823,208	43,3
823,624	43,01
824,039	43,17
824,455	43,14
824,87	43,38
825,286	43,36
825,701	43,08
826,116	42,78
826,531	43,1
826,946	43,22
827,361	43,04
827,776	43,21
828,19	43
828,605	42,85
829,02	43,37
829,434	42,96
829,848	42,8
830,263	43,01
830,677	43,34
831,091	43,02
831,505	43,51
831,919	43
832,332	42,87
832,746	43,12
833,16	42,98
833,573	43,01
833,987	42,91
834,4	42,79
834,813	43,34
835,226	42,65
835,639	43,17
836,052	42,98
836,465	43,19
836,878	43,29
837,29	42,88
837,703	42,92
838,116	42,61
838,528	43,04
838,94	42,61
839,352	42,78
839,765	42,8
840,177	42,78
840,589	42,81
841	42,84
841,412	42,7
841,824	42,96
842,235	42,99
842,647	42,92
843,058	42,82
843,47	43,18
843,881	42,59
844,292	43,42
844,703	43,24
845,114	42,68
845,525	43,09
845,935	42,84
846,346	42,76
846,757	42,92
847,167	42,9
847,577	42,75
847,988	42,94
848,398	42,82
848,808	43,01
849,218	42,69
849,628	42,69
850,038	42,53
850,448	42,52
850,857	42,66
851,267	42,68
851,676	42,71
852,086	42,91
852,495	42,55
852,904	43,28
853,313	42,71
853,722	42,38
854,131	42,94
854,54	42,86
854,949	42,07
855,357	42,69
855,766	42,52
856,174	42,45
856,583	42,89
856,991	42,75
857,399	42,47
857,807	42,51
858,215	42,71
858,623	42,83
859,031	42,93
859,439	42,56
859,846	42,19
860,254	42,32
860,661	42,63
861,069	42,58
861,476	42,55
861,883	42,42
862,29	42,69
862,697	42,6
863,104	42,37
863,511	42,82
863,918	42,41
864,325	42,6
864,731	42,41
865,138	42,62
865,544	42,71
865,95	42,5
866,357	42,64
866,763	42,09
867,169	42,26
867,575	42,55
867,98	42,26
868,386	42,63
868,792	42,89
869,197	42,88
869,603	43,07
870,008	42,34
870,414	42,27
870,819	42,5
871,224	42,27
871,629	42,46
872,034	42,54
872,439	42,29
872,844	42,58
873,248	42,71
873,653	42,82
874,057	42,29
874,462	42,47
874,866	42,55
875,27	42,68
875,674	42,48
876,078	42,28
876,482	42,75
876,886	42,1
877,29	42,64
877,694	42,09
878,097	42,47
878,501	42,58
878,904	42,36
879,308	42,12
879,711	42,53
880,114	42,31
880,517	41,97
880,92	42,57
881,323	42,22
881,726	42,72
882,128	42,7
882,531	42,4
882,934	42,84
883,336	42,35
883,738	42,56
884,141	42,46
884,543	42,32
884,945	42,04
885,347	42,39
885,749	42,37
886,151	42,45
886,552	42,58
886,954	42,39
887,355	42,27
887,757	42,35
888,158	42,26
888,56	42,54
888,961	42,27
889,362	42,62
889,763	42,34
890,164	42,46
890,565	42,94
890,965	42,54
891,366	42,79
891,767	42,53
892,167	42,05
892,567	41,99
892,968	42,51
893,368	41,98
893,768	42,36
894,168	41,94
894,568	42,52
894,968	42,36
895,368	42,6
895,767	41,86
896,167	42,5
896,566	42,02
896,966	42
897,365	42,07
897,764	42,59
898,164	41,9
898,563	42,76
898,962	42,08
899,361	42,01
899,759	42,1
900,158	42,3
900,557	41,89
900,955	42,34
901,354	42,38
901,752	42,08
902,15	42,1
902,548	42,25
902,947	42,2
903,345	42,16
903,742	42,19
904,14	42,32
904,538	42,19
904,936	41,98
905,333	42,5
905,731	42,16
906,128	42,09
906,525	42,58
906,923	42,66
907,32	42,53
907,717	42,36
908,114	42,31
908,511	41,78
908,907	42,32
909,304	41,94
909,701	42,33
910,097	42
910,494	42,29
910,89	42,04
911,286	42,05
911,682	42,53
912,078	42,79
912,474	42,1
912,87	42,05
913,266	42,61
913,662	41,9
914,058	42,54
914,453	42,25
914,849	42,2
915,244	42,36
915,639	42,31
916,034	42,73
916,43	42,54
916,825	42,46
917,22	41,81
917,614	42,29
918,009	42,26
918,404	42,27
918,798	42,4
919,193	42,3
919,587	42,28
919,982	42,68
920,376	42,01
920,77	42,27
921,164	42,44
921,558	42,01
921,952	41,46
922,346	41,89
922,74	42,28
923,133	42,48
923,527	42,39
923,92	42,38
924,314	41,97
924,707	42,33
925,1	41,71
925,493	42,08
925,886	42,03
926,279	42,19
926,672	42,69
927,065	42,42
927,457	42,51
927,85	41,5
928,243	42,29
928,635	42,57
929,027	41,92
929,42	41,96
929,812	41,81
930,204	42,44
930,596	42,5
930,988	42,56
931,379	42,36
931,771	42,06
932,163	41,94
932,554	42,37
932,946	42,03
933,337	42,28
933,729	42,18
934,12	42,11
934,511	41,98
934,902	42,25
935,293	42,53
935,684	42,47
936,075	42,17
936,465	41,74
936,856	41,68
937,246	42,18
937,637	41,67
938,027	42,61
938,417	42,08
938,808	42,3
939,198	41,86
939,588	42,13
939,978	41,61
940,368	42,61
940,757	42,29
941,147	42,39
941,537	42,41
941,926	42,29
942,315	41,66
942,705	42,24
943,094	41,71
943,483	42,36
943,872	41,7
944,261	42,07
944,65	42,2
945,039	42,06
945,428	42,39
945,816	41,87
946,205	42,25
946,593	42,47
946,982	42,5
947,37	42,04
947,758	42,15
948,146	42,39
948,534	42,17
948,922	42,48
949,31	41,95
949,698	41,77
950,086	41,7
950,473	42,23
950,861	41,99
951,248	41,42
951,636	41,08
952,023	41,98
952,41	41,28
952,797	41,35
953,184	42
953,571	41,96
953,958	41,99
954,345	41,41
954,731	41,87
955,118	42,02
955,505	41,43
955,891	41,25
956,277	41,39
956,664	41,74
957,05	41,46
957,436	41,31
957,822	41,52
958,208	41,7
958,594	41,7
958,979	40,8
959,365	41,07
959,751	40,95
960,136	41,36
960,522	41,32
960,907	41,38
961,292	40,92
961,677	41,98
962,062	40,93
962,447	41,7
962,832	41,06
963,217	40,69
963,602	40,9
963,986	42,17
964,371	41,37
964,756	40,92
965,14	41,11
965,524	41,08
965,908	41,6
966,293	41,79
966,677	42,21
967,061	41,5
967,445	40,73
967,828	41,22
968,212	41,01
968,596	41,62
968,979	41,27
969,363	42,12
969,746	41,65
970,129	41,95
970,513	41,81
970,896	40,96
971,279	41,04
971,662	41,11
972,045	41,39
972,428	41,11
972,81	41,73
973,193	41,75
973,575	41,75
973,958	41,73
974,34	41,74
974,723	41,36
975,105	41,64
975,487	41,66
975,869	41,68
976,251	41,55
976,633	41,51
977,015	41,43
977,396	41,74
977,778	41,7
978,16	41,59
978,541	41,37
978,922	42,27
979,304	40,97
979,685	41,38
980,066	41,88
980,447	41,07
980,828	41,46
981,209	42,13
981,59	41,35
981,97	41,36
982,351	41,58
982,732	41,13
983,112	41,46
983,493	40,68
983,873	42,01
984,253	41,53
984,633	41,64
985,013	41,18
985,393	41,34
985,773	41,53
986,153	42,09
986,533	40,84
986,912	41,75
987,292	41,83
987,671	41,69
988,051	42,14
988,43	41,33
988,809	41,64
989,188	41,35
989,567	40,89
989,946	41,37
990,325	41,51
990,704	41,87
991,083	41,04
991,461	41,61
991,84	41,45
992,218	41,1
992,597	41,03
992,975	41,11
993,353	41,36
993,732	41,75
994,11	40,95
994,488	40,8
994,866	41,7
995,243	41,41
995,621	41,36
995,999	41,26
996,376	41,54
996,754	41,75
997,131	41,83
997,509	42,38
997,886	41,34
998,263	41,43
998,64	41,74
999,017	41,81
999,394	41,84
999,771	41,86
1000,148	41
1000,524	42,17
1000,901	41,79
1001,277	42,07
1001,654	42,02
1002,03	42,18
1002,406	41,98
1002,783	41,62
1003,159	42,6
1003,535	41,8
1003,911	41,51
1004,286	41,23
1004,662	41,23
1005,038	41,78
1005,414	41,82
1005,789	42
1006,164	42,74
1006,54	42,26
1006,915	42,3
1007,29	41,38
1007,665	42,28
1008,04	41,51
1008,415	41,62
1008,79	42,13
1009,165	41,77
1009,54	42,1
1009,914	42,35
1010,289	41,03
1010,663	41,65
1011,038	41,69
1011,412	41,55
1011,786	42,6
1012,16	42,09
1012,535	42,24
1012,909	41,42
1013,282	42,29
1013,656	42,13
1014,03	42,05
1014,404	42,24
1014,777	41,87
1015,151	41,46
1015,524	41,9
1015,897	42,23
1016,271	41,88
1016,644	41,84
1017,017	42,35
1017,39	42,5
1017,763	42,67
1018,136	42,32
1018,508	41,88
1018,881	41,79
1019,254	41,57
1019,626	41,86
1019,999	41,97
1020,371	42,02
1020,743	41,89
1021,116	40,59
1021,488	41,47
1021,86	42,66
1022,232	41,64
1022,604	42,16
1022,975	42,04
1023,347	41,28
1023,719	41,59
1024,09	42
1024,462	41,37
1024,833	42,69
1025,204	42,88
1025,576	41,8
1025,947	42,07
1026,318	41,12
1026,689	42,32
1027,06	42,58
1027,431	42,67
1027,801	42,75
1028,172	42,98
1028,543	42,2
1028,913	42,25
1029,284	41,92
1029,654	42,25
1030,024	42,13
1030,394	42,3
1030,764	41,73
1031,135	42,61
1031,504	42,23
1031,874	42,05
1032,244	42,9
1032,614	42,43
1032,983	41,95
1033,353	42,12
1033,722	43,23
1034,092	42,13
1034,461	42,57
1034,83	41,44
1035,2	42,77
1035,569	41,19
1035,938	43,02
1036,307	42,18
1036,675	42,39
1037,044	41,74
1037,413	42,52
1037,781	42,14
1038,15	42,68
1038,518	42,67
1038,887	42,94
1039,255	42,11
1039,623	43,05
1039,991	43,22
1040,359	41,6
1040,727	41,94
1041,095	41,76
1041,463	42,66
1041,831	42,1
1042,198	42,81
1042,566	42,85
1042,933	41,7
1043,301	42,17
1043,668	43,09
1044,035	42,64
1044,402	43,73
1044,77	42,6
1045,137	43,48
1045,503	42,53
1045,87	41,73
1046,237	41,88
1046,604	42,28
1046,97	43,93
1047,337	42,22
1047,703	43,13
1048,07	43,11
1048,436	41,49
1048,802	41,39
1049,168	42,94
1049,534	42,5
1049,9	41,97
1050,266	42,57
1050,632	43,38
1050,998	42,72
1051,364	43,63
1051,729	43,22
1052,095	43,01
1052,46	42,87
1052,825	43,56
1053,191	42,18
1053,556	40,84
1053,921	42,35
1054,286	42,79
1054,651	42,66
1055,016	41,64
1055,381	42,51
1055,745	42,87
1056,11	41,73
1056,475	42,73
1056,839	42,66
1057,203	43,18
1057,568	43,49
1057,932	43,19
1058,296	43,57
1058,66	42,82
1059,024	43,82
1059,388	43,17
1059,752	43,41
1060,116	43,12
1060,48	42,91
1060,843	42,84
1061,207	42,18
1061,57	42,01
1061,934	43,75
1062,297	41,99
1062,66	42,47
1063,023	43,74
1063,386	43,66
1063,749	41,74
1064,112	42,41
1064,475	43,79
1064,838	43,14
1065,201	42,85
1065,563	43,98
1065,926	44,11
1066,288	42,49
1066,651	45,34
1067,013	44,08
1067,375	42,76
1067,737	44,35
1068,099	42,47
1068,461	41,17
1068,823	41,63
1069,185	42,67
1069,547	43,63
1069,909	43,01
1070,27	42,71
1070,632	42,45
1070,993	44,62
1071,355	43,26
1071,716	42,02
1072,077	42,8
1072,438	41,55
1072,799	42,82
1073,16	44,02
1073,521	43,92
1073,882	44,14
1074,243	41,58
1074,603	45,21
1074,964	42,86
1075,325	44,35
1075,685	43,76
1076,045	41,83
1076,406	43,86
1076,766	43,15
1077,126	42,45
1077,486	42,66
1077,846	42,57
1078,206	43,31
1078,566	42,65
1078,925	44,26
1079,285	43,38
1079,645	42,01
1080,004	42,25
1080,364	43,13
1080,723	43,22
1081,082	44,23
1081,442	45,05
1081,801	43,81
1082,16	41,89
1082,519	45,35
1082,878	44,79
1083,237	40,77
1083,595	43,18
1083,954	44,24
1084,313	43,75
1084,671	42,36
1085,03	42,64
1085,388	43,87
1085,746	45,34
1086,104	41,55
1086,463	42,55
1086,821	43,67
1087,179	43,48
1087,537	42,17
1087,894	43,86
1088,252	42,1
1088,61	42,74
1088,967	43,32
1089,325	44,62
1089,682	42,85
1090,04	44,34
1090,397	44,3
1090,754	44,49
1091,111	42,81
1091,469	43,6
1091,826	42,01
1092,182	43,82
1092,539	41,5
1092,896	43,56
1093,253	43,53
1093,609	42,12
1093,966	41,72
1094,322	42,55
1094,679	42,46
1095,035	43,83
1095,391	43,13
1095,748	44,72
1096,104	44,13
1096,46	46,41
1096,816	47,31
1097,171	44,52
1097,527	43,75
1097,883	45,38
1098,239	47,74
1098,594	42,42
1098,95	45,6
1099,305	42,72
1099,66	46,37
1100,016	44,71
1100,371	44,69
1100,726	42,63
1101,081	45,13
1101,436	45,04
1101,791	45,94
1102,146	45,14
1102,5	43,58
1102,855	45,8
1103,21	45,57
1103,564	43,11
1103,918	41,29
1104,273	43,02
1104,627	47,26
1104,981	44,01
1105,335	45,71
1105,69	43,88
1106,043	44,78
1106,397	47,07
1106,751	44,7
1107,105	45,93
1107,459	44,38
1107,812	45,62
1108,166	45,14
1108,519	47,79
1108,873	43,47
1109,226	47,36
1109,579	45,8
1109,932	45,5
1110,285	48,18
1110,638	44,87
1110,991	46,08
1111,344	42,62
1111,697	43,44
1112,05	49,62
1112,402	43,85
1112,755	43,6
1113,107	44,39
1113,46	45,69
1113,812	44,24
1114,164	47,37
1114,517	47,61
1114,869	75
1115,221	88,52
1115,573	80
1115,924	88,73
