Data from I4__Relative__0__00108.txt Node

Date: Thu Feb 01 16:28:19 CET 2024
User: diatiterra
Spectrometer: HDX00911
Trigger mode: 0
Integration Time (sec): 6,000000E-3
Scans to average: 2
Nonlinearity correction enabled: false
Boxcar width: 0
Storing dark spectrum: false
XAxis mode: Wavelengths
Number of Pixels in Spectrum: 2068
>>>>>Begin Spectral Data<<<<<
194,468	218,46
195,025	131,94
195,581	162,12
196,138	136,76
196,694	140,66
197,251	100,79
197,807	80,81
198,363	85,21
198,919	82,61
199,474	89,17
200,03	80,68
200,586	93,04
201,141	72,16
201,696	91,91
202,251	73,48
202,806	85,06
203,361	80,87
203,916	80
204,471	82,07
205,025	89,19
205,58	80,35
206,134	73,94
206,688	76,96
207,242	83,72
207,796	69,7
208,35	83,14
208,904	83,62
209,457	76,47
210,011	96,32
210,564	76,88
211,117	96,73
211,67	87,08
212,223	83,51
212,776	87,7
213,329	90,91
213,881	76,68
214,434	78
214,986	91,57
215,538	80,43
216,09	88,54
216,642	94,58
217,194	102,35
217,746	89,71
218,297	88,89
218,849	86,63
219,4	87,22
219,951	95,43
220,502	88,76
221,053	91,07
221,604	97,63
222,155	86,1
222,705	82,46
223,256	87,64
223,806	76,57
224,356	77,84
224,906	96,36
225,456	78,07
226,006	84,15
226,556	87,03
227,106	90,24
227,655	76,96
228,204	75,14
228,754	100
229,303	90
229,852	87,78
230,401	99,38
230,949	76,84
231,498	85,11
232,047	81,11
232,595	82,18
233,143	82,11
233,691	75,27
234,239	78,69
234,787	86,63
235,335	87,21
235,883	79,47
236,43	85,16
236,978	86,17
237,525	78,89
238,072	85
238,619	87,8
239,166	76,96
239,713	88,27
240,26	88,3
240,806	90,18
241,353	77,91
241,899	80,22
242,445	78,7
242,991	84,32
243,537	82,35
244,083	81,87
244,629	76,5
245,174	81,61
245,72	80,45
246,265	68,59
246,81	78,41
247,355	83,52
247,9	79,41
248,445	93,63
248,99	84,44
249,534	97,75
250,079	88,55
250,623	75
251,168	84,48
251,712	87,06
252,256	87,58
252,8	87,01
253,343	89,01
253,887	75,96
254,43	76,7
254,974	80,45
255,517	79,1
256,06	80,68
256,603	85,39
257,146	74,59
257,689	84,13
258,232	69,31
258,774	91,67
259,317	79,12
259,859	78,53
260,401	81,46
260,943	89,17
261,485	72,97
262,027	72,49
262,569	88,74
263,11	80,79
263,652	85,16
264,193	83,52
264,734	70,18
265,275	71,88
265,816	72,97
266,357	70,9
266,898	77,78
267,438	87,34
267,979	71,59
268,519	85,71
269,059	86,14
269,6	79,78
270,14	62,24
270,68	90,41
271,219	81,61
271,759	95,51
272,298	75,68
272,838	78,95
273,377	84,36
273,916	93,96
274,455	83,59
274,994	78,33
275,533	80,84
276,072	83,23
276,61	91,12
277,149	85,29
277,687	71,69
278,225	77,06
278,763	80,35
279,301	81,91
279,839	77,66
280,377	80,12
280,914	69,07
281,452	89,39
281,989	84,12
282,526	87,97
283,064	77,5
283,601	78,65
284,137	86,5
284,674	88,2
285,211	81,18
285,747	74,87
286,284	72,94
286,82	74,48
287,356	62,37
287,892	86,19
288,428	83,91
288,964	74,19
289,5	84,39
290,035	85,8
290,571	78,84
291,106	77,53
291,641	91,28
292,176	73,66
292,711	73,84
293,246	78,26
293,781	84,53
294,315	64,8
294,85	83,87
295,384	89,02
295,918	73,4
296,453	75,14
296,987	89,62
297,52	75
298,054	78,16
298,588	93,9
299,121	80,45
299,655	78,24
300,188	94
300,721	77,64
301,254	81,48
301,787	74,73
302,32	75,13
302,853	80,45
303,385	74,46
303,918	86,86
304,45	73,98
304,982	80,79
305,514	77,13
306,046	75,54
306,578	89,3
307,11	83,43
307,641	86,81
308,173	85,39
308,704	79,55
309,236	78,68
309,767	82,63
310,298	84,91
310,829	82,5
311,359	70,05
311,89	91,23
312,421	78,38
312,951	85,71
313,481	85,29
314,012	77,08
314,542	87,23
315,072	88,4
315,601	89,61
316,131	80,32
316,661	85,8
317,19	81,5
317,72	92,77
318,249	88,89
318,778	104,76
319,307	84,38
319,836	94,35
320,365	85,19
320,893	90,16
321,422	92,26
321,95	80,73
322,479	105,45
323,007	88,2
323,535	89,02
324,063	81,92
324,591	83,07
325,118	83,33
325,646	86,7
326,173	81,97
326,701	73,33
327,228	79,06
327,755	82,74
328,282	86,59
328,809	91,18
329,336	76,12
329,862	85,14
330,389	79,38
330,915	84,46
331,441	87,72
331,968	106,18
332,494	84,18
333,02	73,18
333,545	78,31
334,071	77,44
334,597	88,2
335,122	71,81
335,648	78,37
336,173	75,14
336,698	77,66
337,223	75,4
337,748	66,67
338,272	68,09
338,797	84,7
339,322	81,62
339,846	86,56
340,37	72,68
340,894	68,16
341,419	73,56
341,942	74,07
342,466	77,2
342,99	74,35
343,514	67,65
344,037	77,13
344,56	70,81
345,084	73,63
345,607	64,56
346,13	70,89
346,653	78,5
347,175	72,25
347,698	72,36
348,221	71,36
348,743	70,17
349,265	70,94
349,787	59,51
350,309	57,89
350,831	64,44
351,353	64,93
351,875	62,35
352,397	57,33
352,918	66,67
353,439	65,82
353,961	60,24
354,482	65,53
355,003	60,49
355,524	65,84
356,044	70,54
356,565	58,94
357,086	53,56
357,606	49,79
358,126	57,47
358,646	55,02
359,167	53,91
359,687	52,04
360,206	58,15
360,726	56,42
361,246	55,85
361,765	52,9
362,285	57,99
362,804	53,96
363,323	54,26
363,842	52,46
364,361	53,65
364,88	52,43
365,398	58,25
365,917	45,99
366,435	53,33
366,954	49,19
367,472	49,68
367,99	45,13
368,508	52,67
369,026	52,24
369,544	44,03
370,061	49,55
370,579	46,6
371,096	42,15
371,613	52,42
372,131	42,32
372,648	43,59
373,165	47,12
373,681	46,69
374,198	49
374,715	43,3
375,231	43,8
375,747	42,33
376,264	45,69
376,78	42,13
377,296	37,98
377,812	38,99
378,327	40,6
378,843	42,97
379,359	40,33
379,874	40,2
380,389	37,25
380,905	34,84
381,42	32,44
381,935	37,53
382,449	35,95
382,964	33,06
383,479	32,1
383,993	32,51
384,508	33,27
385,022	33,27
385,536	33,98
386,05	32,39
386,564	31,97
387,078	31,72
387,592	30,82
388,105	28,26
388,619	28,64
389,132	27,5
389,645	27,68
390,158	29,09
390,671	30,49
391,184	27,63
391,697	26,26
392,21	25,27
392,722	24,44
393,235	25,5
393,747	25,23
394,259	27,46
394,771	24,42
395,283	25,46
395,795	24,48
396,307	23,24
396,818	23,39
397,33	25,1
397,841	23,48
398,353	23,15
398,864	22,94
399,375	21,71
399,886	20,02
400,397	21,34
400,907	18,92
401,418	18,16
401,928	20,32
402,439	17,68
402,949	17,1
403,459	17,33
403,969	18,16
404,479	15,47
404,989	16,54
405,498	14,27
406,008	14,97
406,517	17,42
407,027	14,83
407,536	13,96
408,045	12,83
408,554	13,65
409,063	13,77
409,572	12,34
410,08	12,23
410,589	11,37
411,097	10,25
411,606	10,98
412,114	11,28
412,622	9,7
413,13	10,67
413,638	9,24
414,145	9,22
414,653	9,84
415,16	9
415,668	8,71
416,175	8,34
416,682	8,75
417,189	8,86
417,696	8,41
418,203	7,4
418,71	8,02
419,216	8,07
419,723	7,82
420,229	6,8
420,735	7,59
421,242	6,58
421,748	6,99
422,254	6,92
422,759	7,02
423,265	6,73
423,771	6,91
424,276	6,77
424,781	7
425,287	5,97
425,792	7,17
426,297	6,24
426,802	6,39
427,306	6,78
427,811	6,1
428,316	6,34
428,82	5,8
429,324	5,74
429,829	6,08
430,333	6,19
430,837	6,01
431,34	5,73
431,844	5,51
432,348	5,77
432,851	5,36
433,355	5,65
433,858	5,67
434,361	5,45
434,864	5,47
435,367	5,45
435,87	5,37
436,373	5,13
436,876	5,64
437,378	4,89
437,88	5,06
438,383	5,25
438,885	5,16
439,387	5,49
439,889	4,9
440,391	5,42
440,892	5,28
441,394	5,47
441,896	5,29
442,397	5,42
442,898	4,76
443,399	4,59
443,9	5,15
444,401	5,53
444,902	5,23
445,403	5,15
445,903	5,07
446,404	5,06
446,904	5,32
447,405	4,86
447,905	5,25
448,405	4,75
448,905	4,59
449,404	4,91
449,904	5,01
450,404	5,06
450,903	5,15
451,403	4,98
451,902	5,26
452,401	4,9
452,9	5,34
453,399	5,5
453,898	4,65
454,396	4,78
454,895	4,64
455,393	5,21
455,892	5,11
456,39	5,02
456,888	4,47
457,386	4,95
457,884	5,1
458,382	4,51
458,879	5,12
459,377	5,27
459,874	5,32
460,372	4,93
460,869	4,74
461,366	4,62
461,863	4,84
462,36	5,09
462,857	4,58
463,353	4,75
463,85	4,57
464,346	5
464,843	4,87
465,339	4,5
465,835	4,44
466,331	5,27
466,827	4,77
467,323	4,84
467,818	4,55
468,314	5,08
468,809	4,89
469,305	4,53
469,8	4,76
470,295	4,99
470,79	4,66
471,285	4,67
471,78	4,67
472,274	4,54
472,769	4,56
473,263	4,66
473,758	4,94
474,252	4,69
474,746	4,69
475,24	4,62
475,734	4,67
476,228	4,51
476,721	4,72
477,215	4,57
477,708	4,44
478,202	4,66
478,695	4,61
479,188	4,66
479,681	4,89
480,174	4,62
480,667	4,68
481,159	4,7
481,652	4,49
482,144	4,52
482,637	4,94
483,129	4,83
483,621	4,74
484,113	4,83
484,605	4,84
485,097	4,71
485,588	4,74
486,08	4,8
486,571	4,88
487,063	4,57
487,554	4,76
488,045	5,03
488,536	4,91
489,027	4,71
489,518	4,73
490,008	4,83
490,499	4,76
490,989	4,66
491,48	4,99
491,97	5
492,46	4,71
492,95	4,85
493,44	4,96
493,93	4,9
494,419	4,92
494,909	5,04
495,398	5,08
495,888	5,2
496,377	5,09
496,866	4,97
497,355	5,3
497,844	5,15
498,333	5,19
498,821	5,19
499,31	5,36
499,798	5,11
500,287	5,29
500,775	5,4
501,263	5,68
501,751	5,48
502,239	6,05
502,727	5,6
503,215	5,69
503,702	6,1
504,19	5,88
504,677	5,94
505,164	6,17
505,651	6,11
506,139	5,91
506,625	6,44
507,112	6,54
507,599	6,67
508,086	6,82
508,572	6,92
509,058	7
509,545	6,86
510,031	7,5
510,517	7,24
511,003	7,3
511,489	7,33
511,974	7,68
512,46	7,63
512,946	7,9
513,431	8,12
513,916	8,39
514,401	8,19
514,887	8,35
515,371	8,87
515,856	9,13
516,341	8,98
516,826	9,58
517,31	9,24
517,795	9,7
518,279	9,97
518,763	9,89
519,247	10,2
519,731	10,48
520,215	10,82
520,699	10,83
521,182	11,18
521,666	11,36
522,149	11,8
522,633	11,79
523,116	11,78
523,599	12,14
524,082	12,25
524,565	12,63
525,048	13,08
525,53	12,87
526,013	13,15
526,495	13,12
526,978	13,54
527,46	13,67
527,942	14,05
528,424	14,21
528,906	14,36
529,388	14,48
529,87	14,62
530,351	15,14
530,833	15,09
531,314	14,81
531,795	15,32
532,277	15,15
532,758	15,46
533,238	15,44
533,719	15,81
534,2	15,7
534,681	15,39
535,161	15,65
535,642	16,09
536,122	16,15
536,602	16,09
537,082	15,8
537,562	16,02
538,042	16,15
538,522	16,34
539,001	16,73
539,481	16,13
539,96	16,96
540,44	16,4
540,919	16,27
541,398	16,65
541,877	16,61
542,356	16,35
542,835	16,4
543,313	16,87
543,792	16,77
544,27	17,15
544,749	16,74
545,227	16,88
545,705	17,07
546,183	16,57
546,661	16,89
547,139	17,32
547,616	17,04
548,094	17,19
548,571	17,35
549,049	17,52
549,526	17,13
550,003	16,97
550,48	17,63
550,957	17,01
551,434	16,93
551,911	16,95
552,387	17,25
552,864	17,11
553,34	17,36
553,817	17,61
554,293	17,15
554,769	17,23
555,245	17,13
555,721	17,11
556,197	17,03
556,672	17,3
557,148	17,22
557,623	17,23
558,099	17,27
558,574	17,12
559,049	17,17
559,524	16,93
559,999	17,18
560,474	16,63
560,948	16,68
561,423	16,63
561,897	16,42
562,372	16,46
562,846	16,31
563,32	16,36
563,794	16,27
564,268	16,16
564,742	16,61
565,216	15,97
565,69	16,13
566,163	15,92
566,636	15,97
567,11	15,88
567,583	15,58
568,056	15,41
568,529	14,94
569,002	15,03
569,475	14,95
569,947	14,84
570,42	14,64
570,892	14,77
571,365	14,36
571,837	14,21
572,309	13,77
572,781	14,31
573,253	14
573,725	13,85
574,197	13,78
574,668	13,77
575,14	13,45
575,611	13,45
576,082	13,27
576,554	13,26
577,025	12,7
577,496	12,88
577,967	12,84
578,437	12,57
578,908	12,75
579,379	12,68
579,849	12,24
580,319	12,09
580,79	12,17
581,26	12,2
581,73	11,95
582,2	11,9
582,669	12,11
583,139	11,87
583,609	11,79
584,078	11,57
584,548	11,48
585,017	11,57
585,486	11,24
585,955	11,8
586,424	11,23
586,893	11,32
587,362	11,28
587,83	11,34
588,299	11,11
588,767	11,13
589,236	11,06
589,704	10,75
590,172	10,75
590,64	11,07
591,108	10,71
591,576	10,85
592,043	10,5
592,511	10,6
592,978	10,76
593,446	10,59
593,913	10,69
594,38	10,43
594,847	10,49
595,314	10,3
595,781	10,41
596,248	10,27
596,715	10,27
597,181	10,28
597,647	10,31
598,114	10,4
598,58	10,1
599,046	9,97
599,512	10,42
599,978	10,07
600,444	10,12
600,91	10,19
601,375	9,96
601,841	10,03
602,306	9,97
602,771	10
603,236	9,83
603,702	9,93
604,167	10
604,631	9,88
605,096	9,81
605,561	9,88
606,025	9,74
606,49	9,62
606,954	9,6
607,418	9,63
607,882	9,59
608,347	9,31
608,81	9,53
609,274	9,38
609,738	9,32
610,202	9,23
610,665	9,32
611,128	9,17
611,592	9,09
612,055	9,13
612,518	9,1
612,981	9,02
613,444	8,58
613,907	8,87
614,369	8,64
614,832	8,62
615,294	8,82
615,757	8,61
616,219	8,61
616,681	8,4
617,143	8,38
617,605	8,35
618,067	8,44
618,529	8,24
618,99	8,13
619,452	8,06
619,913	7,98
620,375	8,12
620,836	8,04
621,297	8,08
621,758	7,99
622,219	8,02
622,68	7,86
623,14	7,99
623,601	7,94
624,061	7,76
624,522	7,86
624,982	7,87
625,442	7,8
625,902	7,71
626,362	7,92
626,822	7,83
627,282	7,73
627,742	7,65
628,201	7,66
628,661	7,73
629,12	7,67
629,579	7,69
630,038	7,7
630,497	7,57
630,956	7,65
631,415	7,49
631,874	7,7
632,332	7,68
632,791	7,71
633,249	7,57
633,708	7,57
634,166	7,51
634,624	7,35
635,082	7,43
635,54	7,31
635,998	7,28
636,455	7,32
636,913	7,23
637,37	7,13
637,828	7,02
638,285	7,04
638,742	6,97
639,199	6,83
639,656	6,91
640,113	6,71
640,57	6,63
641,027	6,64
641,483	6,47
641,94	6,51
642,396	6,45
642,852	6,37
643,309	6,39
643,765	6,04
644,221	6,06
644,676	5,96
645,132	6,02
645,588	6
646,043	5,85
646,499	5,78
646,954	5,8
647,409	5,58
647,864	5,65
648,319	5,63
648,774	5,51
649,229	5,42
649,684	5,37
650,139	5,45
650,593	5,28
651,047	5,48
651,502	5,27
651,956	5,39
652,41	5,32
652,864	5,38
653,318	5,24
653,772	5,25
654,225	5,14
654,679	5,17
655,133	5,13
655,586	5,11
656,039	5,17
656,492	5,12
656,946	5
657,399	5,17
657,851	4,93
658,304	4,92
658,757	4,95
659,209	4,97
659,662	4,94
660,114	4,87
660,567	4,74
661,019	4,75
661,471	4,82
661,923	4,66
662,375	4,71
662,826	4,75
663,278	4,7
663,73	4,53
664,181	4,67
664,632	4,56
665,084	4,57
665,535	4,5
665,986	4,55
666,437	4,56
666,888	4,36
667,338	4,5
667,789	4,54
668,24	4,5
668,69	4,44
669,14	4,59
669,591	4,52
670,041	4,63
670,491	4,62
670,941	4,62
671,391	4,62
671,84	4,61
672,29	4,71
672,74	4,71
673,189	4,86
673,638	4,83
674,088	4,93
674,537	4,97
674,986	4,98
675,435	4,9
675,883	5,01
676,332	5,08
676,781	5,17
677,229	5,21
677,678	5,18
678,126	5,32
678,574	5,46
679,022	5,5
679,47	5,71
679,918	5,66
680,366	5,82
680,814	5,83
681,261	5,93
681,709	5,95
682,156	6,01
682,604	6,27
683,051	6,18
683,498	6,18
683,945	6,33
684,392	6,35
684,839	6,55
685,286	6,65
685,732	6,63
686,179	6,68
686,625	6,81
687,071	6,93
687,518	6,82
687,964	7,04
688,41	7,3
688,856	7,3
689,301	7,52
689,747	7,46
690,193	7,64
690,638	7,85
691,084	8,06
691,529	8,19
691,974	8,69
692,419	8,81
692,864	9,09
693,309	9,24
693,754	9,55
694,199	9,9
694,643	10,03
695,088	10,47
695,532	10,72
695,977	11,26
696,421	11,54
696,865	11,94
697,309	12,21
697,753	12,61
698,197	13,01
698,64	13,41
699,084	13,68
699,527	14,24
699,971	14,4
700,414	15,22
700,857	15,53
701,3	15,95
701,743	16,53
702,186	16,62
702,629	17,15
703,072	17,45
703,515	18,21
703,957	18,23
704,399	18,66
704,842	19,14
705,284	19,56
705,726	20,03
706,168	20,2
706,61	20,83
707,052	21,03
707,494	21,58
707,935	21,94
708,377	22,48
708,818	22,63
709,26	23,03
709,701	23,39
710,142	23,81
710,583	24,18
711,024	24,54
711,465	24,72
711,905	25,18
712,346	25,55
712,787	25,94
713,227	26,27
713,667	26,86
714,108	27,08
714,548	27,75
714,988	27,76
715,428	27,98
715,868	28,55
716,307	28,59
716,747	29,13
717,186	29,41
717,626	29,96
718,065	30,37
718,504	30,08
718,944	30,97
719,383	31,29
719,822	31,19
720,261	31,54
720,699	31,88
721,138	32,13
721,576	32,62
722,015	32,58
722,453	33,1
722,892	33,35
723,33	33,42
723,768	33,8
724,206	33,99
724,644	34,26
725,081	34,37
725,519	34,68
725,957	35,2
726,394	35,15
726,832	35,54
727,269	35,69
727,706	35,57
728,143	35,8
728,58	35,81
729,017	36,67
729,454	36,6
729,89	36,48
730,327	36,87
730,764	37,1
731,2	37,31
731,636	37,12
732,072	37,2
732,509	37,47
732,945	37,45
733,38	37,31
733,816	37,73
734,252	37,89
734,688	37,85
735,123	37,93
735,559	38,31
735,994	37,93
736,429	38,34
736,864	38,87
737,299	38,42
737,734	38,66
738,169	39,01
738,604	38,64
739,038	38,85
739,473	38,96
739,907	38,69
740,342	38,82
740,776	39,18
741,21	39,04
741,644	39,07
742,078	39,32
742,512	39,28
742,946	39,27
743,379	39,61
743,813	39,23
744,246	39,24
744,68	39,25
745,113	38,97
745,546	39,43
745,979	39,27
746,412	39,55
746,845	39,31
747,278	39,59
747,711	39,01
748,143	39,3
748,576	39,16
749,008	39,09
749,441	39,65
749,873	39,2
750,305	39,22
750,737	39,25
751,169	39,06
751,601	39,66
752,032	39,39
752,464	39,13
752,896	38,7
753,327	39,3
753,758	39,09
754,19	39,04
754,621	39,11
755,052	38,76
755,483	39,05
755,914	38,97
756,344	39,08
756,775	39,07
757,206	38,63
757,636	38,74
758,066	38,8
758,497	38,78
758,927	38,99
759,357	38,66
759,787	38,67
760,217	39,1
760,647	38,83
761,076	38,53
761,506	38,52
761,935	38,89
762,365	38,81
762,794	38,67
763,223	38,91
763,653	38,45
764,082	38,35
764,51	38,33
764,939	38,23
765,368	38,7
765,797	38,46
766,225	38,34
766,654	38,36
767,082	38,19
767,51	38,09
767,938	38,06
768,367	38,21
768,795	38,04
769,222	38,17
769,65	38,32
770,078	38,07
770,505	38,08
770,933	37,87
771,36	38,21
771,788	37,92
772,215	37,99
772,642	37,86
773,069	37,77
773,496	37,87
773,923	37,76
774,349	37,89
774,776	37,88
775,203	37,97
775,629	38,05
776,055	37,88
776,482	37,75
776,908	37,79
777,334	37,61
777,76	37,76
778,186	37,9
778,611	37,97
779,037	37,98
779,463	37,59
779,888	37,77
780,314	37,75
780,739	37,61
781,164	37,81
781,589	37,81
782,014	37,55
782,439	37,69
782,864	37,55
783,289	37,32
783,713	37,73
784,138	37,53
784,562	37,64
784,987	37,74
785,411	37,7
785,835	37,45
786,259	37,27
786,683	37,42
787,107	37,33
787,531	37,41
787,954	37,43
788,378	37,26
788,802	37,23
789,225	37,36
789,648	36,99
790,071	37,34
790,495	37,14
790,918	37,45
791,34	37,46
791,763	37,44
792,186	37,38
792,609	37,19
793,031	37,41
793,454	37,32
793,876	37,07
794,298	37,43
794,721	37,13
795,143	37,06
795,565	37,31
795,986	37,39
796,408	37,19
796,83	37,26
797,252	37,19
797,673	37,31
798,094	37,25
798,516	37,45
798,937	37,12
799,358	37,18
799,779	37,2
800,2	37,18
800,621	37,13
801,042	36,95
801,462	37,02
801,883	37,17
802,303	37,09
802,724	36,84
803,144	37,01
803,564	36,74
803,984	37,29
804,404	36,93
804,824	37,38
805,244	36,84
805,664	36,81
806,084	37,11
806,503	37
806,923	37,26
807,342	37,13
807,761	37,14
808,18	37,14
808,599	37,05
809,018	37,26
809,437	37,36
809,856	37,34
810,275	36,93
810,693	36,73
811,112	37,19
811,53	37,06
811,949	37,26
812,367	37,15
812,785	36,93
813,203	37,03
813,621	37,16
814,039	37,1
814,457	36,87
814,874	36,87
815,292	37,05
815,709	37,03
816,127	37,12
816,544	36,99
816,961	36,77
817,378	36,96
817,795	37,22
818,212	36,76
818,629	36,92
819,046	37,18
819,462	36,69
819,879	36,75
820,295	36,76
820,712	36,84
821,128	36,77
821,544	36,87
821,96	36,87
822,376	36,94
822,792	36,89
823,208	36,69
823,624	36,66
824,039	36,79
824,455	36,86
824,87	37,01
825,286	36,96
825,701	36,8
826,116	36,81
826,531	36,68
826,946	36,81
827,361	36,77
827,776	36,69
828,19	36,63
828,605	36,86
829,02	36,93
829,434	36,76
829,848	36,7
830,263	36,57
830,677	37,01
831,091	36,91
831,505	36,92
831,919	36,69
832,332	36,8
832,746	36,51
833,16	36,64
833,573	36,29
833,987	36,67
834,4	36,42
834,813	36,57
835,226	36,81
835,639	36,58
836,052	36,65
836,465	36,56
836,878	36,56
837,29	36,88
837,703	36,66
838,116	36,36
838,528	36,79
838,94	36,58
839,352	36,78
839,765	36,45
840,177	36,7
840,589	36,8
841	36,44
841,412	36,71
841,824	36,58
842,235	36,65
842,647	36,41
843,058	36,36
843,47	36,45
843,881	36,53
844,292	36,49
844,703	36,74
845,114	36,4
845,525	36,47
845,935	36,25
846,346	36,75
846,757	36,7
847,167	36,42
847,577	36,64
847,988	36,07
848,398	36,31
848,808	36,55
849,218	36,63
849,628	36,28
850,038	36,35
850,448	36,63
850,857	36,34
851,267	36,18
851,676	36,61
852,086	36,19
852,495	36,32
852,904	36,69
853,313	36,05
853,722	36,13
854,131	36,31
854,54	36,64
854,949	35,96
855,357	36,34
855,766	36,44
856,174	36,12
856,583	36,49
856,991	36,72
857,399	36,32
857,807	36,38
858,215	36,32
858,623	36,41
859,031	36,19
859,439	36,52
859,846	36,13
860,254	36,09
860,661	36,42
861,069	36,12
861,476	36,35
861,883	36,28
862,29	36,36
862,697	36,17
863,104	36,41
863,511	36,08
863,918	36,15
864,325	36,23
864,731	36,06
865,138	36,13
865,544	36,23
865,95	36,36
866,357	36,35
866,763	36,22
867,169	36,23
867,575	36,24
867,98	36,33
868,386	36,22
868,792	35,93
869,197	36,22
869,603	36,33
870,008	36,21
870,414	36,14
870,819	35,83
871,224	36,04
871,629	36,26
872,034	36,32
872,439	36,06
872,844	36,29
873,248	36,18
873,653	36,14
874,057	36,5
874,462	36,33
874,866	36,09
875,27	36,44
875,674	36,39
876,078	36,14
876,482	36,08
876,886	35,97
877,29	36,23
877,694	36,19
878,097	36,18
878,501	36,14
878,904	36
879,308	36,37
879,711	36,03
880,114	36,23
880,517	36,12
880,92	36,03
881,323	35,85
881,726	36,18
882,128	36,32
882,531	35,99
882,934	36,32
883,336	36,17
883,738	36,46
884,141	36,31
884,543	36,23
884,945	36,08
885,347	36,05
885,749	36,05
886,151	36,12
886,552	36,41
886,954	36,08
887,355	36
887,757	35,97
888,158	35,98
888,56	36,23
888,961	35,94
889,362	36,15
889,763	36,24
890,164	36,3
890,565	36,37
890,965	36,16
891,366	36,06
891,767	36,29
892,167	35,83
892,567	36,17
892,968	36,12
893,368	36,15
893,768	36,34
894,168	35,94
894,568	36,11
894,968	35,95
895,368	36
895,767	36,01
896,167	36,32
896,566	35,76
896,966	35,65
897,365	35,87
897,764	35,94
898,164	35,88
898,563	36,18
898,962	35,98
899,361	36,07
899,759	36
900,158	35,74
900,557	35,83
900,955	36
901,354	36,17
901,752	35,92
902,15	36,08
902,548	35,94
902,947	36,4
903,345	36,12
903,742	35,69
904,14	35,99
904,538	36,33
904,936	35,88
905,333	35,81
905,731	35,86
906,128	35,91
906,525	36,06
906,923	36,04
907,32	36,28
907,717	36,38
908,114	36,13
908,511	36,23
908,907	36,66
909,304	35,84
909,701	35,74
910,097	36,27
910,494	36,02
910,89	35,58
911,286	36,3
911,682	36,2
912,078	36,6
912,474	36,16
912,87	35,71
913,266	36,2
913,662	35,57
914,058	36,22
914,453	36,16
914,849	35,8
915,244	35,95
915,639	36,11
916,034	36,05
916,43	36,16
916,825	35,93
917,22	35,9
917,614	36,14
918,009	35,84
918,404	36,26
918,798	36,13
919,193	35,99
919,587	36,13
919,982	36,23
920,376	35,84
920,77	35,93
921,164	35,94
921,558	35,69
921,952	35,59
922,346	35,79
922,74	35,42
923,133	35,9
923,527	35,93
923,92	36,12
924,314	35,97
924,707	36,21
925,1	35,72
925,493	35,95
925,886	36,07
926,279	36,09
926,672	36,16
927,065	35,82
927,457	36,02
927,85	35,76
928,243	35,59
928,635	36,16
929,027	35,78
929,42	36,14
929,812	35,85
930,204	36,29
930,596	35,87
930,988	35,89
931,379	36,03
931,771	35,74
932,163	35,6
932,554	35,77
932,946	36,05
933,337	36,02
933,729	35,68
934,12	35,52
934,511	36,11
934,902	35,72
935,293	35,85
935,684	35,72
936,075	36,38
936,465	36,19
936,856	35,31
937,246	35,86
937,637	35,25
938,027	36,2
938,417	35,3
938,808	36,29
939,198	35,44
939,588	36,23
939,978	35,69
940,368	35,91
940,757	35,91
941,147	36,15
941,537	36,73
941,926	35,57
942,315	35,79
942,705	36,08
943,094	35,47
943,483	36,69
943,872	35,97
944,261	36,53
944,65	35,42
945,039	35,83
945,428	35,45
945,816	35,19
946,205	36,09
946,593	36,18
946,982	36,05
947,37	36,22
947,758	36,11
948,146	35,98
948,534	35,05
948,922	36,15
949,31	35,72
949,698	36,08
950,086	34,95
950,473	34,99
950,861	35,94
951,248	35,73
951,636	35,59
952,023	35,85
952,41	34,96
952,797	35,27
953,184	35,21
953,571	35,21
953,958	35,85
954,345	34,97
954,731	35,42
955,118	35,11
955,505	35,21
955,891	35,62
956,277	34,6
956,664	35,39
957,05	36,23
957,436	35,42
957,822	35,08
958,208	35,25
958,594	35,58
958,979	34,55
959,365	34,57
959,751	34,64
960,136	35,16
960,522	35,3
960,907	35,22
961,292	35,1
961,677	35,33
962,062	35,32
962,447	35,23
962,832	35,04
963,217	34,85
963,602	34,46
963,986	35,28
964,371	34,93
964,756	34,86
965,14	34,93
965,524	34,87
965,908	34,98
966,293	34,94
966,677	35,21
967,061	34,86
967,445	34,64
967,828	35,3
968,212	34,56
968,596	35,16
968,979	35,15
969,363	35,26
969,746	34,82
970,129	35,03
970,513	34,96
970,896	34,46
971,279	34,91
971,662	35,19
972,045	34,78
972,428	34,79
972,81	35,48
973,193	35,61
973,575	34,93
973,958	34,74
974,34	34,82
974,723	34,81
975,105	35,35
975,487	35,02
975,869	35,62
976,251	35,21
976,633	34,36
977,015	34,54
977,396	34,54
977,778	35,25
978,16	34,49
978,541	34,46
978,922	35,12
979,304	34,33
979,685	34,76
980,066	35,43
980,447	34,72
980,828	35,04
981,209	34,82
981,59	34,48
981,97	34,94
982,351	35,5
982,732	35,08
983,112	34,64
983,493	34,75
983,873	34,84
984,253	34,86
984,633	35,04
985,013	35,39
985,393	34,97
985,773	35,41
986,153	35,4
986,533	34,84
986,912	35,19
987,292	35,12
987,671	34,71
988,051	35,68
988,43	34,97
988,809	35,22
989,188	34,83
989,567	34,51
989,946	35,03
990,325	34,85
990,704	35,9
991,083	34,8
991,461	35,36
991,84	35,26
992,218	34,86
992,597	34,96
992,975	34,78
993,353	35,22
993,732	34,56
994,11	35,12
994,488	35,24
994,866	35,23
995,243	35,2
995,621	35,53
995,999	34,91
996,376	35,05
996,754	35,25
997,131	35,17
997,509	35,96
997,886	35,55
998,263	35,08
998,64	35,32
999,017	34,74
999,394	35,3
999,771	35,3
1000,148	35,07
1000,524	35,32
1000,901	35,38
1001,277	36,1
1001,654	35,64
1002,03	35,76
1002,406	35,35
1002,783	35,42
1003,159	35,69
1003,535	35,38
1003,911	34,72
1004,286	35,36
1004,662	35,36
1005,038	35,83
1005,414	36,62
1005,789	35,74
1006,164	35,92
1006,54	35,5
1006,915	35,91
1007,29	35,23
1007,665	36,25
1008,04	35,52
1008,415	35,72
1008,79	36,13
1009,165	36,31
1009,54	35,66
1009,914	35,52
1010,289	35,26
1010,663	35,83
1011,038	35,73
1011,412	35,29
1011,786	36,51
1012,16	35,9
1012,535	35,67
1012,909	35,3
1013,282	36,51
1013,656	35,46
1014,03	35,73
1014,404	36,28
1014,777	35,99
1015,151	35,7
1015,524	36,16
1015,897	35,71
1016,271	36,01
1016,644	34,87
1017,017	36,13
1017,39	36
1017,763	35,72
1018,136	36,31
1018,508	35,77
1018,881	36,25
1019,254	35,83
1019,626	36,54
1019,999	36,39
1020,371	36,49
1020,743	36,42
1021,116	35,13
1021,488	35,35
1021,86	36,27
1022,232	36,23
1022,604	35,62
1022,975	36,2
1023,347	35,69
1023,719	35,61
1024,09	36,91
1024,462	36,04
1024,833	35,96
1025,204	37,17
1025,576	35,62
1025,947	36,25
1026,318	35,64
1026,689	36,6
1027,06	36,82
1027,431	36,3
1027,801	36,51
1028,172	35,68
1028,543	36,68
1028,913	36,79
1029,284	37,42
1029,654	36,49
1030,024	34,86
1030,394	37
1030,764	37,1
1031,135	36,96
1031,504	36,25
1031,874	36,44
1032,244	35,98
1032,614	36,47
1032,983	36,46
1033,353	36,54
1033,722	36,31
1034,092	36,87
1034,461	37,15
1034,83	35,77
1035,2	36,62
1035,569	37,02
1035,938	36,49
1036,307	37,47
1036,675	37,28
1037,044	36,81
1037,413	35,55
1037,781	36,88
1038,15	36,5
1038,518	36,51
1038,887	37,15
1039,255	38,05
1039,623	37,68
1039,991	37,6
1040,359	36,84
1040,727	36,62
1041,095	36,63
1041,463	36,92
1041,831	37,19
1042,198	36,76
1042,566	36,15
1042,933	37,29
1043,301	37,07
1043,668	37,9
1044,035	36,45
1044,402	38,51
1044,77	37,21
1045,137	37,79
1045,503	37,83
1045,87	37,54
1046,237	37,08
1046,604	37,05
1046,97	38,37
1047,337	37,05
1047,703	38,22
1048,07	37,85
1048,436	36,95
1048,802	36,59
1049,168	38,52
1049,534	38,3
1049,9	38,09
1050,266	37,4
1050,632	38,14
1050,998	38,06
1051,364	37,1
1051,729	37,2
1052,095	37,57
1052,46	37,41
1052,825	37,59
1053,191	39,11
1053,556	37,38
1053,921	37,3
1054,286	37,98
1054,651	37,12
1055,016	38,41
1055,381	37,84
1055,745	38,04
1056,11	37,91
1056,475	37,43
1056,839	38,01
1057,203	36,97
1057,568	38,48
1057,932	37,39
1058,296	37,41
1058,66	38,46
1059,024	37,62
1059,388	37,47
1059,752	38,22
1060,116	38,44
1060,48	38,27
1060,843	37,93
1061,207	38,35
1061,57	38,09
1061,934	39,04
1062,297	38,69
1062,66	37,75
1063,023	38,82
1063,386	38,71
1063,749	39,42
1064,112	38,89
1064,475	39,03
1064,838	38,35
1065,201	39,13
1065,563	39,57
1065,926	39,87
1066,288	38,82
1066,651	40,13
1067,013	40,46
1067,375	39,98
1067,737	39,66
1068,099	39,12
1068,461	38,22
1068,823	38,57
1069,185	37,5
1069,547	38,58
1069,909	38,45
1070,27	38,28
1070,632	39,45
1070,993	39,48
1071,355	38,84
1071,716	38,95
1072,077	38,98
1072,438	40,12
1072,799	40,27
1073,16	38,87
1073,521	38,7
1073,882	38,42
1074,243	38,49
1074,603	37,67
1074,964	38,52
1075,325	39,18
1075,685	39,21
1076,045	38,4
1076,406	37,98
1076,766	38,84
1077,126	38,42
1077,486	40,31
1077,846	39,54
1078,206	40,5
1078,566	39,41
1078,925	39
1079,285	38,77
1079,645	40,16
1080,004	39,85
1080,364	38,89
1080,723	37,43
1081,082	39,71
1081,442	40,4
1081,801	37,64
1082,16	38,93
1082,519	43,15
1082,878	41,28
1083,237	38,96
1083,595	39,98
1083,954	40,29
1084,313	39,65
1084,671	40,2
1085,03	39,48
1085,388	40,07
1085,746	39,26
1086,104	40,01
1086,463	39,03
1086,821	39,33
1087,179	40,84
1087,537	41,91
1087,894	40
1088,252	40,75
1088,61	41,88
1088,967	40,15
1089,325	42,16
1089,682	38,86
1090,04	40,43
1090,397	42,27
1090,754	41,88
1091,111	40,99
1091,469	41,3
1091,826	40,1
1092,182	39,78
1092,539	39,89
1092,896	41,93
1093,253	40,24
1093,609	39,47
1093,966	40,9
1094,322	40,48
1094,679	41,95
1095,035	40,63
1095,391	42,8
1095,748	42,44
1096,104	41,4
1096,46	42,29
1096,816	43,11
1097,171	40,73
1097,527	43,61
1097,883	40
1098,239	42,22
1098,594	44,84
1098,95	41,23
1099,305	41,99
1099,66	45,08
1100,016	40,88
1100,371	45,08
1100,726	41,35
1101,081	38,74
1101,436	43,25
1101,791	42,8
1102,146	42,04
1102,5	42,13
1102,855	43,76
1103,21	46,16
1103,564	44,04
1103,918	41,63
1104,273	42,24
1104,627	43,19
1104,981	45,53
1105,335	43,12
1105,69	45,14
1106,043	42,75
1106,397	43,26
1106,751	43,75
1107,105	49,7
1107,459	45,75
1107,812	46,66
1108,166	46,38
1108,519	46,22
1108,873	44,65
1109,226	45,2
1109,579	48,17
1109,932	48,23
1110,285	47,63
1110,638	46,13
1110,991	48,07
1111,344	44,78
1111,697	43,9
1112,05	45,43
1112,402	48,33
1112,755	45,84
1113,107	46,74
1113,46	48,03
1113,812	46,21
1114,164	51,55
1114,517	47,91
1114,869	160
1115,221	150,82
1115,573	156,92
1115,924	142,25
