Data from I_4__Relative__3__00190.txt Node

Date: Mon Jan 29 18:31:06 CET 2024
User: diatiterra
Spectrometer: HDX00911
Trigger mode: 0
Integration Time (sec): 6,000000E-3
Scans to average: 2
Nonlinearity correction enabled: false
Boxcar width: 0
Storing dark spectrum: false
XAxis mode: Wavelengths
Number of Pixels in Spectrum: 2068
>>>>>Begin Spectral Data<<<<<
194,468	77,45
195,025	58,41
195,581	69,15
196,138	48,46
196,694	55,75
197,251	47,56
197,807	39,6
198,363	46,18
198,919	44,84
199,474	38,93
200,03	34,19
200,586	36,05
201,141	43,82
201,696	42,56
202,251	44,65
202,806	40,23
203,361	37,89
203,916	46,58
204,471	40,85
205,025	40,71
205,58	43,73
206,134	48,89
206,688	40,22
207,242	39,8
207,796	36,61
208,35	36,1
208,904	40,34
209,457	32,49
210,011	34,62
210,564	32,64
211,117	40,14
211,67	39,08
212,223	37,67
212,776	44,57
213,329	38,14
213,881	37,5
214,434	41,03
214,986	36,36
215,538	39,19
216,09	36,72
216,642	41,48
217,194	43,05
217,746	42,09
218,297	36,91
218,849	38,01
219,4	46,5
219,951	46,91
220,502	37,63
221,053	36,36
221,604	45,97
222,155	40,33
222,705	42,81
223,256	39,93
223,806	42,52
224,356	45,29
224,906	41,11
225,456	42,41
226,006	35,91
226,556	43,8
227,106	39,16
227,655	45,99
228,204	41,78
228,754	36,9
229,303	42,71
229,852	37,58
230,401	41,22
230,949	46,3
231,498	47,39
232,047	41,41
232,595	42,55
233,143	48,11
233,691	43,2
234,239	40,3
234,787	42,31
235,335	44,22
235,883	46,24
236,43	41,48
236,978	42,55
237,525	42,16
238,072	40,96
238,619	34,59
239,166	46,46
239,713	47,58
240,26	39,7
240,806	41,13
241,353	42,05
241,899	40,13
242,445	45,45
242,991	48,43
243,537	40,59
244,083	46,55
244,629	38,51
245,174	48,88
245,72	41,81
246,265	41,7
246,81	43,43
247,355	40,44
247,9	42,56
248,445	48,97
248,99	42,56
249,534	46,84
250,079	41,42
250,623	35,59
251,168	40,27
251,712	45,39
252,256	45,85
252,8	50,35
253,343	44,27
253,887	39,8
254,43	48,33
254,974	46,85
255,517	43,29
256,06	40,07
256,603	40
257,146	45,12
257,689	37,97
258,232	38,7
258,774	43,91
259,317	44,32
259,859	43,91
260,401	50
260,943	38,81
261,485	47,16
262,027	41,38
262,569	50,38
263,11	51,99
263,652	42,28
264,193	44,29
264,734	48,41
265,275	40,96
265,816	49,28
266,357	44,6
266,898	37,2
267,438	41,18
267,979	42,55
268,519	40,79
269,059	48,58
269,6	44,91
270,14	47,85
270,68	46,36
271,219	36,14
271,759	41,42
272,298	38,18
272,838	41,86
273,377	42,22
273,916	48,01
274,455	45,98
274,994	46,04
275,533	39,59
276,072	36,84
276,61	39,93
277,149	35,14
277,687	47,33
278,225	44,86
278,763	48,91
279,301	41,51
279,839	45,29
280,377	47,45
280,914	35,53
281,452	48,78
281,989	44,71
282,526	43,73
283,064	44,44
283,601	48,86
284,137	42,34
284,674	46,42
285,211	35,61
285,747	45,08
286,284	38,25
286,82	45,74
287,356	40,89
287,892	42,46
288,428	38,98
288,964	43,68
289,5	44,9
290,035	43,17
290,571	43,66
291,106	41,82
291,641	40,61
292,176	42,11
292,711	47,93
293,246	45,13
293,781	36,8
294,315	40,81
294,85	40,15
295,384	47,78
295,918	38,33
296,453	36,04
296,987	43,1
297,52	40,07
298,054	41,91
298,588	46,85
299,121	41,76
299,655	42,46
300,188	37,64
300,721	44,83
301,254	40,21
301,787	36,18
302,32	47,35
302,853	37,28
303,385	39,56
303,918	38,6
304,45	47,88
304,982	43,03
305,514	37,27
306,046	33,68
306,578	38,93
307,11	41,64
307,641	42,91
308,173	39,41
308,704	42,53
309,236	40,07
309,767	41,25
310,298	34,84
310,829	41,06
311,359	43,42
311,89	43,42
312,421	42,03
312,951	41,45
313,481	42,97
314,012	41,76
314,542	39,38
315,072	36
315,601	38,79
316,131	32,85
316,661	39,58
317,19	40,93
317,72	48,35
318,249	40,88
318,778	44,87
319,307	38,51
319,836	44,3
320,365	37,79
320,893	36,88
321,422	38,81
321,95	38,89
322,479	40,83
323,007	49,64
323,535	46,42
324,063	43,28
324,591	29,67
325,118	34,27
325,646	40,38
326,173	47,5
326,701	33,45
327,228	41,21
327,755	36,56
328,282	46,79
328,809	48,15
329,336	43,25
329,862	51,92
330,389	36,86
330,915	41,84
331,441	39,66
331,968	39,52
332,494	34,45
333,02	39,78
333,545	37,55
334,071	38,67
334,597	39,53
335,122	35,45
335,648	42,12
336,173	42,57
336,698	42,81
337,223	46,08
337,748	29,82
338,272	35,31
338,797	39,48
339,322	37,21
339,846	35,16
340,37	32,97
340,894	47,95
341,419	32,21
341,942	34,23
342,466	31,4
342,99	32,31
343,514	31,49
344,037	32,46
344,56	34,48
345,084	33,12
345,607	34,95
346,13	35,38
346,653	28,93
347,175	39,03
347,698	25,89
348,221	29,65
348,743	35,57
349,265	31,25
349,787	30,29
350,309	31,4
350,831	33,43
351,353	32,8
351,875	30,06
352,397	34,71
352,918	35,88
353,439	37,94
353,961	24,51
354,482	35,96
355,003	30,83
355,524	32,91
356,044	28,5
356,565	29,93
357,086	25,19
357,606	26,51
358,126	29,93
358,646	30,1
359,167	29,24
359,687	28,54
360,206	25,3
360,726	23,64
361,246	28,19
361,765	29,17
362,285	23,93
362,804	26,67
363,323	27,06
363,842	33,33
364,361	29
364,88	24,89
365,398	21,19
365,917	28,34
366,435	22,53
366,954	26,65
367,472	27,29
367,99	26,28
368,508	23,63
369,026	23,06
369,544	23,82
370,061	25,66
370,579	22,33
371,096	23,54
371,613	23,67
372,131	22,89
372,648	24,37
373,165	28,6
373,681	22,24
374,198	22,95
374,715	22,05
375,231	22,73
375,747	29,59
376,264	23,96
376,78	22,65
377,296	20,73
377,812	22,7
378,327	20,44
378,843	25,7
379,359	22,61
379,874	24,32
380,389	20,36
380,905	24,27
381,42	24,67
381,935	24,53
382,449	24,02
382,964	19,24
383,479	22,86
383,993	20,31
384,508	20,96
385,022	21
385,536	17,67
386,05	21,74
386,564	19,83
387,078	18,74
387,592	21,04
388,105	16,91
388,619	20,94
389,132	19,96
389,645	19,65
390,158	18,99
390,671	19,85
391,184	17,36
391,697	18,9
392,21	18,33
392,722	17,94
393,235	17,76
393,747	16,85
394,259	18,04
394,771	16,09
395,283	16,08
395,795	16,23
396,307	15,49
396,818	15,89
397,33	14,8
397,841	15,25
398,353	15,5
398,864	14,61
399,375	14,14
399,886	14,02
400,397	15,06
400,907	14,85
401,418	14
401,928	13,22
402,439	13,55
402,949	12,14
403,459	12,89
403,969	13,43
404,479	12,03
404,989	11,02
405,498	11,18
406,008	9,8
406,517	9,76
407,027	10,23
407,536	10,47
408,045	8,89
408,554	9,79
409,063	9,35
409,572	8,5
410,08	8,63
410,589	7,91
411,097	7,62
411,606	8,05
412,114	7,51
412,622	6,91
413,13	7,16
413,638	6,81
414,145	6,73
414,653	6,05
415,16	6,91
415,668	6,61
416,175	5,98
416,682	5,47
417,189	5,33
417,696	6,28
418,203	5,72
418,71	5,36
419,216	5,22
419,723	5,33
420,229	5,66
420,735	5,32
421,242	5,92
421,748	5,98
422,254	4,81
422,759	5,48
423,265	4,79
423,771	4,86
424,276	5,28
424,781	4,76
425,287	5,02
425,792	4,96
426,297	5,28
426,802	4,86
427,306	4,92
427,811	4,77
428,316	5,24
428,82	5,01
429,324	5,17
429,829	5,17
430,333	4,58
430,837	4,8
431,34	4,32
431,844	4,44
432,348	4,57
432,851	4,67
433,355	4,39
433,858	3,92
434,361	4,34
434,864	4,32
435,367	4,33
435,87	4,72
436,373	4,52
436,876	4,29
437,378	4,17
437,88	4,01
438,383	4,37
438,885	4,01
439,387	4,17
439,889	3,94
440,391	4,17
440,892	4,2
441,394	4,48
441,896	4,38
442,397	4,07
442,898	4,04
443,399	4,64
443,9	4,49
444,401	4,38
444,902	4,1
445,403	4,36
445,903	4,27
446,404	4,09
446,904	4,46
447,405	4,32
447,905	4,18
448,405	4,39
448,905	4,27
449,404	4,23
449,904	4,36
450,404	4,26
450,903	4,15
451,403	4,4
451,902	4,41
452,401	4,29
452,9	4,34
453,399	4,74
453,898	4,39
454,396	4,53
454,895	4,51
455,393	4,21
455,892	4,12
456,39	4,59
456,888	4,23
457,386	4,35
457,884	4,37
458,382	4,34
458,879	4,13
459,377	4,32
459,874	4,43
460,372	4,21
460,869	4,52
461,366	4,7
461,863	4,37
462,36	4,6
462,857	4,38
463,353	4,46
463,85	4,46
464,346	4,41
464,843	4,67
465,339	4,61
465,835	4,28
466,331	4,44
466,827	4,41
467,323	4,4
467,818	4,4
468,314	4,55
468,809	4,33
469,305	4,52
469,8	4,56
470,295	4,28
470,79	4,25
471,285	4,27
471,78	4,31
472,274	4,38
472,769	4,52
473,263	4,2
473,758	4,52
474,252	4,19
474,746	4,55
475,24	4,41
475,734	4,57
476,228	4,35
476,721	4,4
477,215	4,43
477,708	4,31
478,202	4,63
478,695	4,29
479,188	4,32
479,681	4,24
480,174	4,57
480,667	4,56
481,159	4,55
481,652	4,43
482,144	4,44
482,637	4,66
483,129	4,49
483,621	4,37
484,113	4,76
484,605	4,59
485,097	4,52
485,588	4,45
486,08	4,69
486,571	4,59
487,063	4,75
487,554	4,84
488,045	4,72
488,536	4,72
489,027	4,71
489,518	4,96
490,008	4,69
490,499	4,62
490,989	4,8
491,48	4,89
491,97	4,72
492,46	5,06
492,95	5,05
493,44	4,9
493,93	4,88
494,419	5,02
494,909	5,03
495,398	5,08
495,888	5,25
496,377	5,11
496,866	5,4
497,355	5,44
497,844	5,47
498,333	5,37
498,821	5,67
499,31	5,56
499,798	5,61
500,287	5,65
500,775	5,87
501,263	6,07
501,751	5,87
502,239	6,27
502,727	6,42
503,215	6,39
503,702	6,69
504,19	6,54
504,677	6,94
505,164	6,63
505,651	7,03
506,139	7,19
506,625	7,08
507,112	7,46
507,599	7,43
508,086	7,83
508,572	7,96
509,058	7,8
509,545	8,39
510,031	8,66
510,517	8,55
511,003	9,01
511,489	9,29
511,974	9,5
512,46	9,44
512,946	9,81
513,431	9,81
513,916	10,18
514,401	10,44
514,887	10,76
515,371	11,2
515,856	11,09
516,341	11,38
516,826	12,01
517,31	11,97
517,795	12,44
518,279	12,71
518,763	12,8
519,247	13,03
519,731	13,2
520,215	13,71
520,699	14,17
521,182	14,46
521,666	14,68
522,149	14,48
522,633	15,21
523,116	15,29
523,599	15,73
524,082	15,89
524,565	16,03
525,048	16,57
525,53	16,68
526,013	17,2
526,495	17,46
526,978	17,48
527,46	17,7
527,942	17,84
528,424	18,18
528,906	18,23
529,388	18,39
529,87	18,6
530,351	18,84
530,833	19,15
531,314	19,15
531,795	19,2
532,277	19,47
532,758	19,61
533,238	19,56
533,719	19,81
534,2	20,55
534,681	19,85
535,161	20,17
535,642	20,28
536,122	20,38
536,602	20,4
537,082	20,25
537,562	20,94
538,042	20,78
538,522	20,68
539,001	21,04
539,481	20,86
539,96	20,95
540,44	20,68
540,919	21,02
541,398	21,32
541,877	21,04
542,356	21,18
542,835	20,96
543,313	21,11
543,792	21,05
544,27	21,65
544,749	21,4
545,227	21,8
545,705	21,24
546,183	21,31
546,661	21,81
547,139	21,33
547,616	21,68
548,094	21,63
548,571	21,51
549,049	21,99
549,526	21,58
550,003	21,76
550,48	21,58
550,957	21,84
551,434	21,46
551,911	21,74
552,387	21,65
552,864	21,95
553,34	21,85
553,817	22,01
554,293	22,1
554,769	21,64
555,245	21,6
555,721	21,66
556,197	22,13
556,672	21,76
557,148	21,81
557,623	21,61
558,099	21,71
558,574	21,86
559,049	21,7
559,524	21,59
559,999	21,75
560,474	21,46
560,948	21,24
561,423	21,33
561,897	21,28
562,372	21,28
562,846	21,16
563,32	21,03
563,794	20,6
564,268	20,71
564,742	20,51
565,216	20,55
565,69	20,38
566,163	20,52
566,636	20,22
567,11	19,94
567,583	20,04
568,056	20,03
568,529	20
569,002	19,72
569,475	19,54
569,947	19,18
570,42	18,99
570,892	18,74
571,365	18,62
571,837	18,62
572,309	18,6
572,781	18,13
573,253	17,98
573,725	18,06
574,197	17,76
574,668	17,62
575,14	17,64
575,611	17,23
576,082	17,24
576,554	16,86
577,025	17,34
577,496	16,71
577,967	16,92
578,437	16,56
578,908	16,38
579,379	16,3
579,849	16,21
580,319	16,03
580,79	15,76
581,26	15,82
581,73	15,84
582,2	15,77
582,669	15,61
583,139	15,38
583,609	15,32
584,078	15,19
584,548	15,06
585,017	15,22
585,486	14,89
585,955	14,77
586,424	14,79
586,893	14,65
587,362	14,59
587,83	14,62
588,299	14,39
588,767	14,59
589,236	14,17
589,704	14,1
590,172	14,19
590,64	14,33
591,108	14
591,576	14,21
592,043	14,04
592,511	13,88
592,978	13,84
593,446	14,09
593,913	13,72
594,38	13,8
594,847	13,63
595,314	13,68
595,781	13,51
596,248	13,67
596,715	13,61
597,181	13,57
597,647	13,45
598,114	13,32
598,58	13,53
599,046	13,44
599,512	13,4
599,978	13,3
600,444	13,37
600,91	13,24
601,375	13,29
601,841	13,22
602,306	13,28
602,771	13,18
603,236	13,18
603,702	13,12
604,167	12,82
604,631	12,97
605,096	12,9
605,561	12,67
606,025	12,7
606,49	12,74
606,954	12,62
607,418	12,65
607,882	12,35
608,347	12,42
608,81	12,34
609,274	12,4
609,738	12,13
610,202	12,16
610,665	12,02
611,128	12
611,592	11,95
612,055	11,79
612,518	11,67
612,981	11,56
613,444	11,29
613,907	11,32
614,369	11,22
614,832	11,3
615,294	11,07
615,757	10,95
616,219	11
616,681	10,9
617,143	10,97
617,605	10,75
618,067	10,65
618,529	10,62
618,99	10,56
619,452	10,5
619,913	10,44
620,375	10,33
620,836	10,28
621,297	10,37
621,758	10,29
622,219	10,24
622,68	10,06
623,14	10,02
623,601	10
624,061	10
624,522	9,98
624,982	10,07
625,442	9,91
625,902	9,81
626,362	9,84
626,822	9,97
627,282	9,8
627,742	9,77
628,201	9,91
628,661	9,84
629,12	9,89
629,579	9,76
630,038	9,79
630,497	9,78
630,956	9,67
631,415	9,64
631,874	9,64
632,332	9,55
632,791	9,66
633,249	9,51
633,708	9,65
634,166	9,38
634,624	9,36
635,082	9,28
635,54	9,34
635,998	9,19
636,455	9,14
636,913	9,16
637,37	8,92
637,828	8,99
638,285	8,72
638,742	8,72
639,199	8,6
639,656	8,56
640,113	8,52
640,57	8,25
641,027	8,16
641,483	8,21
641,94	8,01
642,396	8,15
642,852	7,96
643,309	7,77
643,765	7,52
644,221	7,65
644,676	7,53
645,132	7,35
645,588	7,41
646,043	7,26
646,499	7,05
646,954	6,99
647,409	6,88
647,864	6,83
648,319	6,75
648,774	6,59
649,229	6,61
649,684	6,56
650,139	6,38
650,593	6,32
651,047	6,25
651,502	6,39
651,956	6,28
652,41	6,2
652,864	6,23
653,318	6,32
653,772	6,14
654,225	6,02
654,679	6,04
655,133	6,03
655,586	6,04
656,039	5,93
656,492	5,92
656,946	5,9
657,399	5,74
657,851	5,61
658,304	5,63
658,757	5,52
659,209	5,45
659,662	5,45
660,114	5,33
660,567	5,37
661,019	5,2
661,471	5,2
661,923	5,15
662,375	5,03
662,826	4,89
663,278	4,87
663,73	4,84
664,181	4,85
664,632	4,81
665,084	4,75
665,535	4,7
665,986	4,68
666,437	4,63
666,888	4,65
667,338	4,63
667,789	4,61
668,24	4,56
668,69	4,58
669,14	4,59
669,591	4,58
670,041	4,63
670,491	4,61
670,941	4,65
671,391	4,65
671,84	4,71
672,29	4,77
672,74	4,75
673,189	4,79
673,638	4,85
674,088	4,98
674,537	5,03
674,986	5,02
675,435	5,16
675,883	5,13
676,332	5,21
676,781	5,35
677,229	5,33
677,678	5,51
678,126	5,58
678,574	5,63
679,022	5,73
679,47	5,88
679,918	5,83
680,366	6,01
680,814	5,94
681,261	6,17
681,709	6,16
682,156	6,33
682,604	6,43
683,051	6,48
683,498	6,62
683,945	6,75
684,392	6,86
684,839	6,93
685,286	7,06
685,732	7,13
686,179	7,32
686,625	7,43
687,071	7,49
687,518	7,74
687,964	7,96
688,41	8,1
688,856	8,37
689,301	8,6
689,747	8,8
690,193	9,04
690,638	9,32
691,084	9,65
691,529	9,91
691,974	10,4
692,419	10,84
692,864	11,22
693,309	11,61
693,754	12,14
694,199	12,55
694,643	12,93
695,088	13,54
695,532	13,91
695,977	14,34
696,421	14,99
696,865	15,45
697,309	15,98
697,753	16,45
698,197	16,99
698,64	17,39
699,084	17,91
699,527	18,41
699,971	19
700,414	19,48
700,857	20,01
701,3	20,62
701,743	20,84
702,186	21,44
702,629	21,89
703,072	22,28
703,515	22,85
703,957	23,36
704,399	23,53
704,842	24,04
705,284	24,57
705,726	24,8
706,168	25,34
706,61	25,63
707,052	26,21
707,494	26,46
707,935	26,85
708,377	27,15
708,818	27,56
709,26	28,01
709,701	28,2
710,142	28,79
710,583	28,9
711,024	29,14
711,465	29,65
711,905	29,97
712,346	30,34
712,787	30,62
713,227	30,81
713,667	31,31
714,108	31,62
714,548	31,84
714,988	32,28
715,428	32,46
715,868	32,72
716,307	33,06
716,747	33,37
717,186	33,41
717,626	33,85
718,065	33,96
718,504	34,31
718,944	34,65
719,383	34,83
719,822	35,37
720,261	35,47
720,699	35,89
721,138	35,68
721,576	36,1
722,015	36,34
722,453	36,48
722,892	36,77
723,33	36,59
723,768	37,02
724,206	37,27
724,644	37,25
725,081	37,43
725,519	37,69
725,957	37,87
726,394	38,03
726,832	38,03
727,269	38,14
727,706	38,28
728,143	38,63
728,58	38,52
729,017	38,63
729,454	38,82
729,89	38,86
730,327	39,19
730,764	39,09
731,2	39,14
731,636	39,26
732,072	39,24
732,509	39,6
732,945	39,55
733,38	39,6
733,816	39,77
734,252	39,8
734,688	39,89
735,123	39,72
735,559	39,9
735,994	40,27
736,429	40,17
736,864	40,18
737,299	40,19
737,734	40,27
738,169	40,16
738,604	40,23
739,038	40,36
739,473	40,49
739,907	40,19
740,342	40,33
740,776	40,76
741,21	40,64
741,644	40,24
742,078	40,54
742,512	40,81
742,946	40,26
743,379	40,6
743,813	40,3
744,246	40,53
744,68	40,55
745,113	40,39
745,546	40,54
745,979	40,31
746,412	40,46
746,845	40,53
747,278	40,34
747,711	40,41
748,143	40,15
748,576	40,45
749,008	40,41
749,441	40,7
749,873	40,42
750,305	40,21
750,737	40,25
751,169	40,04
751,601	40,42
752,032	40,12
752,464	40,22
752,896	40,08
753,327	40,16
753,758	39,96
754,19	40,14
754,621	40,14
755,052	40,25
755,483	39,92
755,914	40,01
756,344	39,92
756,775	40,08
757,206	40,14
757,636	40,02
758,066	40,22
758,497	39,94
758,927	39,94
759,357	39,87
759,787	39,86
760,217	39,61
760,647	39,73
761,076	39,54
761,506	39,74
761,935	39,78
762,365	39,68
762,794	39,58
763,223	39,8
763,653	39,88
764,082	39,43
764,51	39,58
764,939	39,32
765,368	39,49
765,797	39,34
766,225	39,37
766,654	39,46
767,082	39,76
767,51	39,42
767,938	39,44
768,367	38,97
768,795	39,17
769,222	39,23
769,65	39,16
770,078	39,09
770,505	39,43
770,933	39,28
771,36	39,03
771,788	39,18
772,215	38,77
772,642	39,3
773,069	39,15
773,496	39,01
773,923	39,04
774,349	39,07
774,776	38,98
775,203	38,82
775,629	39
776,055	38,71
776,482	39,02
776,908	38,77
777,334	38,89
777,76	39,02
778,186	38,92
778,611	38,89
779,037	39,12
779,463	38,71
779,888	38,8
780,314	38,98
780,739	38,81
781,164	38,82
781,589	38,72
782,014	38,8
782,439	38,66
782,864	38,93
783,289	38,73
783,713	38,96
784,138	38,77
784,562	38,7
784,987	38,68
785,411	38,42
785,835	38,56
786,259	38,41
786,683	38,59
787,107	38,75
787,531	38,55
787,954	38,73
788,378	38,67
788,802	38,66
789,225	38,55
789,648	38,57
790,071	38,41
790,495	38,69
790,918	38,29
791,34	38,69
791,763	38,57
792,186	38,6
792,609	38,57
793,031	38,47
793,454	38,44
793,876	38,47
794,298	38,53
794,721	38,47
795,143	38,52
795,565	38,18
795,986	38,43
796,408	38,68
796,83	38,48
797,252	38,31
797,673	38,65
798,094	38,24
798,516	38,38
798,937	38,18
799,358	38,28
799,779	38,39
800,2	38,22
800,621	38,18
801,042	38,51
801,462	38,55
801,883	38,47
802,303	38,41
802,724	38,19
803,144	38,46
803,564	38,41
803,984	38,39
804,404	38,15
804,824	38,32
805,244	38,32
805,664	38,38
806,084	38,35
806,503	38,42
806,923	38,28
807,342	38,33
807,761	38,3
808,18	38,16
808,599	38,23
809,018	38,23
809,437	38,16
809,856	38,18
810,275	38,37
810,693	38,39
811,112	38,33
811,53	38,55
811,949	38,2
812,367	38,02
812,785	38,15
813,203	38,17
813,621	38,21
814,039	38
814,457	38,36
814,874	38,14
815,292	38,45
815,709	38,47
816,127	38,08
816,544	38,43
816,961	38,39
817,378	38,31
817,795	38,13
818,212	38,32
818,629	38,18
819,046	38,22
819,462	38,28
819,879	38,09
820,295	38,08
820,712	38,33
821,128	38,32
821,544	38,09
821,96	38,28
822,376	38,24
822,792	38,01
823,208	38,07
823,624	38,21
824,039	37,94
824,455	38,43
824,87	38,37
825,286	38,2
825,701	38,22
826,116	37,98
826,531	38
826,946	38,29
827,361	38,26
827,776	38,37
828,19	38,14
828,605	38,14
829,02	38,3
829,434	38,13
829,848	37,96
830,263	38,16
830,677	38,04
831,091	38,36
831,505	38,1
831,919	38,2
832,332	38
832,746	37,99
833,16	37,93
833,573	38,03
833,987	37,85
834,4	38,15
834,813	38,26
835,226	37,82
835,639	37,76
836,052	38,14
836,465	38,01
836,878	37,99
837,29	38,08
837,703	37,96
838,116	38,27
838,528	38,23
838,94	38,03
839,352	37,82
839,765	37,91
840,177	38,08
840,589	37,67
841	37,86
841,412	37,72
841,824	37,91
842,235	37,85
842,647	37,72
843,058	38,06
843,47	38,13
843,881	37,95
844,292	37,96
844,703	38
845,114	37,71
845,525	38,02
845,935	37,89
846,346	37,76
846,757	37,86
847,167	38,08
847,577	38,01
847,988	38,17
848,398	38,21
848,808	37,72
849,218	38,03
849,628	38,02
850,038	37,88
850,448	37,95
850,857	37,67
851,267	37,92
851,676	38,34
852,086	38,07
852,495	37,95
852,904	37,86
853,313	38,16
853,722	37,86
854,131	37,95
854,54	38,08
854,949	38,01
855,357	37,84
855,766	37,81
856,174	37,66
856,583	37,99
856,991	38,06
857,399	37,86
857,807	37,75
858,215	38,02
858,623	37,86
859,031	37,87
859,439	37,88
859,846	37,81
860,254	37,75
860,661	38,04
861,069	37,79
861,476	37,89
861,883	38,07
862,29	37,99
862,697	37,74
863,104	37,81
863,511	37,94
863,918	37,93
864,325	37,65
864,731	37,59
865,138	38,16
865,544	38,15
865,95	37,65
866,357	37,58
866,763	37,98
867,169	37,81
867,575	37,5
867,98	37,63
868,386	37,87
868,792	37,86
869,197	37,9
869,603	37,85
870,008	37,87
870,414	37,47
870,819	37,9
871,224	37,61
871,629	38
872,034	37,86
872,439	37,42
872,844	37,87
873,248	37,77
873,653	37,78
874,057	37,91
874,462	37,61
874,866	37,63
875,27	37,78
875,674	37,84
876,078	38
876,482	37,92
876,886	37,96
877,29	37,74
877,694	37,84
878,097	37,83
878,501	37,73
878,904	37,85
879,308	37,92
879,711	37,94
880,114	37,74
880,517	37,55
880,92	37,6
881,323	38,17
881,726	37,93
882,128	38
882,531	37,93
882,934	37,52
883,336	37,45
883,738	37,57
884,141	37,68
884,543	37,54
884,945	37,72
885,347	37,96
885,749	38,14
886,151	37,7
886,552	37,66
886,954	37,93
887,355	37,96
887,757	37,93
888,158	37,54
888,56	37,89
888,961	37,84
889,362	38,08
889,763	37,75
890,164	37,99
890,565	37,94
890,965	37,96
891,366	37,68
891,767	37,84
892,167	38,17
892,567	37,64
892,968	38,03
893,368	37,67
893,768	37,68
894,168	37,75
894,568	37,85
894,968	37,68
895,368	37,77
895,767	37,8
896,167	37,91
896,566	37,83
896,966	37,78
897,365	37,6
897,764	37,8
898,164	37,87
898,563	37,64
898,962	37,87
899,361	37,65
899,759	37,58
900,158	38,06
900,557	37,88
900,955	37,65
901,354	37,69
901,752	37,8
902,15	37,9
902,548	37,83
902,947	37,8
903,345	37,75
903,742	37,98
904,14	37,85
904,538	37,7
904,936	38,1
905,333	37,26
905,731	37,9
906,128	37,61
906,525	37,84
906,923	37,95
907,32	37,68
907,717	37,78
908,114	37,66
908,511	37,94
908,907	37,69
909,304	38,05
909,701	37,63
910,097	38,06
910,494	37,84
910,89	37,76
911,286	37,97
911,682	37,55
912,078	37,48
912,474	37,96
912,87	37,83
913,266	37,53
913,662	37,68
914,058	37,74
914,453	37,71
914,849	37,81
915,244	37,68
915,639	37,85
916,034	37,83
916,43	37,37
916,825	37,36
917,22	37,94
917,614	37,95
918,009	37,74
918,404	37,64
918,798	37,9
919,193	37,8
919,587	37,92
919,982	37,67
920,376	37,75
920,77	37,84
921,164	37,93
921,558	37,74
921,952	37,49
922,346	37,78
922,74	38,01
923,133	37,71
923,527	37,43
923,92	37,41
924,314	37,46
924,707	37,86
925,1	37,68
925,493	37,72
925,886	38,06
926,279	37,84
926,672	37,59
927,065	37,75
927,457	37,65
927,85	37,66
928,243	37,57
928,635	37,86
929,027	37,52
929,42	37,89
929,812	37,64
930,204	37,94
930,596	37,5
930,988	37,34
931,379	37,39
931,771	37,36
932,163	37,94
932,554	37,14
932,946	37,49
933,337	37,32
933,729	37,81
934,12	37,41
934,511	37,23
934,902	37,59
935,293	37,88
935,684	37,66
936,075	37,17
936,465	37,41
936,856	37,21
937,246	37,64
937,637	36,93
938,027	37,44
938,417	37,07
938,808	37,4
939,198	37,43
939,588	37,36
939,978	37,54
940,368	36,97
940,757	36,88
941,147	37,96
941,537	37
941,926	37,15
942,315	37,28
942,705	36,76
943,094	37,47
943,483	37,34
943,872	37,01
944,261	36,93
944,65	37,18
945,039	37,24
945,428	37,81
945,816	37,39
946,205	37,63
946,593	37,09
946,982	37,75
947,37	37,41
947,758	37,49
948,146	37,32
948,534	37,52
948,922	37,61
949,31	36,77
949,698	36,97
950,086	36,91
950,473	37,38
950,861	36,63
951,248	37,3
951,636	37,08
952,023	36,58
952,41	36,92
952,797	36,67
953,184	36,64
953,571	36,8
953,958	36,97
954,345	36,67
954,731	36,3
955,118	36,75
955,505	36,3
955,891	36,75
956,277	36,56
956,664	36,88
957,05	36,2
957,436	36,88
957,822	36,6
958,208	36,82
958,594	36,58
958,979	36,47
959,365	36,42
959,751	36,41
960,136	36,67
960,522	36,83
960,907	36,8
961,292	36,45
961,677	36,23
962,062	36,65
962,447	36,61
962,832	36,74
963,217	36,53
963,602	36,61
963,986	36,52
964,371	36,03
964,756	36,3
965,14	36,15
965,524	36,42
965,908	36,43
966,293	36,62
966,677	36,77
967,061	36,51
967,445	36,52
967,828	36,26
968,212	36,6
968,596	36,55
968,979	36,24
969,363	36,23
969,746	36,32
970,129	36,57
970,513	36,02
970,896	36,62
971,279	36,21
971,662	36,3
972,045	35,97
972,428	36,36
972,81	36,46
973,193	36,34
973,575	36,48
973,958	36,29
974,34	36,62
974,723	36,22
975,105	36,5
975,487	36,37
975,869	36,33
976,251	36,74
976,633	36,9
977,015	36,57
977,396	36,25
977,778	37,05
978,16	37,11
978,541	36,5
978,922	36,54
979,304	36,35
979,685	36,14
980,066	36,48
980,447	36,38
980,828	36,28
981,209	36,72
981,59	36,48
981,97	36,7
982,351	36,39
982,732	36,2
983,112	36,6
983,493	36,38
983,873	36,46
984,253	36,77
984,633	36,44
985,013	36,91
985,393	37,16
985,773	36,49
986,153	36,95
986,533	36,27
986,912	36,58
987,292	36,66
987,671	36,81
988,051	36,74
988,43	36,21
988,809	36,36
989,188	36,57
989,567	36,51
989,946	36,97
990,325	36,9
990,704	36,66
991,083	36,2
991,461	37,06
991,84	36,92
992,218	36,73
992,597	36,62
992,975	37,53
993,353	36,73
993,732	36,4
994,11	36,98
994,488	36,23
994,866	36,98
995,243	36,74
995,621	36,62
995,999	36,56
996,376	36,94
996,754	36,82
997,131	37,28
997,509	37,04
997,886	36,62
998,263	37,12
998,64	36,34
999,017	36,17
999,394	37,27
999,771	36,26
1000,148	36,24
1000,524	36,63
1000,901	37,17
1001,277	36,71
1001,654	36,63
1002,03	37,13
1002,406	37,09
1002,783	37,33
1003,159	37,29
1003,535	36,27
1003,911	37,12
1004,286	36,43
1004,662	36,81
1005,038	36,85
1005,414	36,99
1005,789	36,9
1006,164	36,74
1006,54	36,99
1006,915	36,61
1007,29	37,17
1007,665	37,07
1008,04	37,26
1008,415	37,03
1008,79	37,14
1009,165	36,92
1009,54	36,77
1009,914	37,67
1010,289	37,07
1010,663	37,25
1011,038	36,52
1011,412	36,86
1011,786	36,78
1012,16	37,41
1012,535	36,81
1012,909	37,07
1013,282	37,02
1013,656	36,55
1014,03	37,5
1014,404	36,71
1014,777	37,06
1015,151	37,2
1015,524	37,19
1015,897	37,9
1016,271	36,88
1016,644	36,83
1017,017	37,02
1017,39	36,8
1017,763	36,86
1018,136	37,27
1018,508	37,93
1018,881	37,41
1019,254	37,84
1019,626	37,37
1019,999	37,39
1020,371	37,42
1020,743	37,1
1021,116	37,04
1021,488	37,11
1021,86	37,3
1022,232	37,79
1022,604	37,39
1022,975	37,49
1023,347	37,68
1023,719	37,25
1024,09	37,07
1024,462	36,83
1024,833	36,83
1025,204	37,25
1025,576	37,79
1025,947	36,89
1026,318	37,41
1026,689	37,06
1027,06	37,54
1027,431	37,53
1027,801	37,27
1028,172	38,23
1028,543	37,33
1028,913	36,77
1029,284	37,83
1029,654	36,95
1030,024	37,46
1030,394	37,91
1030,764	38,14
1031,135	38,23
1031,504	37,05
1031,874	37,3
1032,244	37,6
1032,614	37,42
1032,983	37,15
1033,353	37,82
1033,722	37,55
1034,092	36,99
1034,461	37,56
1034,83	37,84
1035,2	37,56
1035,569	37,32
1035,938	37,74
1036,307	37,8
1036,675	37,86
1037,044	37,98
1037,413	37,56
1037,781	37,17
1038,15	37,37
1038,518	38,03
1038,887	37,98
1039,255	36,89
1039,623	37,82
1039,991	37,55
1040,359	36,97
1040,727	37,56
1041,095	37,44
1041,463	37,54
1041,831	37,61
1042,198	37,42
1042,566	37,91
1042,933	37,29
1043,301	37,15
1043,668	37,02
1044,035	38,08
1044,402	37,96
1044,77	37,54
1045,137	37,62
1045,503	37,8
1045,87	38,33
1046,237	36,93
1046,604	36,52
1046,97	37,85
1047,337	37,34
1047,703	37,14
1048,07	37,75
1048,436	37,83
1048,802	37,57
1049,168	37,75
1049,534	38,77
1049,9	37,12
1050,266	37,51
1050,632	38,31
1050,998	38,32
1051,364	37,9
1051,729	37,34
1052,095	37,38
1052,46	36,72
1052,825	38,51
1053,191	37,69
1053,556	38,03
1053,921	37,72
1054,286	37,77
1054,651	38,18
1055,016	37,34
1055,381	38,2
1055,745	37,65
1056,11	39,36
1056,475	37,22
1056,839	37,45
1057,203	37,01
1057,568	37,93
1057,932	35,9
1058,296	36,91
1058,66	37,4
1059,024	37,89
1059,388	38,53
1059,752	38,27
1060,116	37,31
1060,48	38,74
1060,843	37,75
1061,207	37,83
1061,57	38,12
1061,934	38,23
1062,297	38,68
1062,66	38,75
1063,023	37,91
1063,386	37,96
1063,749	36,52
1064,112	36,49
1064,475	37,9
1064,838	37,33
1065,201	37,68
1065,563	37,92
1065,926	37,88
1066,288	38,51
1066,651	36,77
1067,013	37,02
1067,375	37,63
1067,737	38,42
1068,099	38,16
1068,461	37,87
1068,823	38,02
1069,185	37,94
1069,547	37,34
1069,909	37,89
1070,27	38,68
1070,632	37,67
1070,993	37,88
1071,355	37,62
1071,716	38,7
1072,077	37,25
1072,438	38,7
1072,799	38,14
1073,16	38,19
1073,521	38,05
1073,882	38,63
1074,243	38,08
1074,603	38,07
1074,964	37,9
1075,325	38,04
1075,685	38,52
1076,045	38,18
1076,406	38,42
1076,766	36,5
1077,126	39,16
1077,486	38,09
1077,846	36,7
1078,206	38,45
1078,566	39,46
1078,925	37,59
1079,285	37,53
1079,645	38,97
1080,004	37,96
1080,364	37,02
1080,723	38,32
1081,082	39,28
1081,442	38,81
1081,801	37,96
1082,16	38,26
1082,519	39,08
1082,878	38,74
1083,237	38,25
1083,595	38,41
1083,954	39,44
1084,313	38,17
1084,671	38,42
1085,03	38,53
1085,388	37,83
1085,746	38,19
1086,104	38,01
1086,463	36,81
1086,821	38,37
1087,179	37,26
1087,537	39,3
1087,894	37,38
1088,252	37,85
1088,61	38,06
1088,967	39,1
1089,325	39,84
1089,682	35,95
1090,04	38,47
1090,397	38,31
1090,754	38,51
1091,111	39,67
1091,469	38,41
1091,826	38,07
1092,182	37,89
1092,539	39,31
1092,896	38,19
1093,253	37,3
1093,609	38,21
1093,966	36,96
1094,322	37,74
1094,679	37,42
1095,035	37,86
1095,391	38,63
1095,748	39,34
1096,104	37,77
1096,46	39,31
1096,816	39,08
1097,171	38,58
1097,527	39,66
1097,883	38,39
1098,239	39,07
1098,594	37,91
1098,95	38,88
1099,305	38,29
1099,66	37,86
1100,016	39,39
1100,371	39,82
1100,726	37,67
1101,081	37,03
1101,436	39,37
1101,791	38,66
1102,146	37,21
1102,5	37,63
1102,855	40,01
1103,21	39,72
1103,564	38,72
1103,918	38,95
1104,273	38,33
1104,627	39,05
1104,981	37,71
1105,335	39,14
1105,69	37,61
1106,043	38,42
1106,397	36,6
1106,751	40,04
1107,105	40,44
1107,459	37,63
1107,812	38,11
1108,166	39,31
1108,519	38,54
1108,873	37,46
1109,226	39,32
1109,579	38,86
1109,932	38,36
1110,285	37,33
1110,638	37,34
1110,991	39,46
1111,344	39,69
1111,697	36,99
1112,05	38,75
1112,402	40,5
1112,755	39,39
1113,107	39,65
1113,46	37,45
1113,812	41,11
1114,164	39,59
1114,517	40,21
1114,869	40,17
1115,221	64,52
1115,573	56,6
1115,924	49,64
